* Measurement data measured by REW V5.30.2
* Source: EXCL: Microphone (Umik-1  Gain: 18dB), MICROPHONE (Master Volume), L, volume: 0.540
* Format: 256k Log Swept Sine, 1 sweep at -20.0 dBFS with no timing reference
* Dated: Jan 19, 2024 11:37:20 AM
* REW Settings:
*  C-weighting compensation: Off
*  Target level: 75.0 dB
* Note: bad fan that came in unit 23; intake off, exhaust 100 pwm; without volume on
* Measurement: Bad Fan in Unit 23 - 2
* Smoothing: 1/48 octave
* Frequency Step: 96 ppo
* Start Frequency: 20.0 Hz
*
* Freq(Hz) SPL(dB) Phase(degrees)
20.141602 52.037 29.1494
20.287556 52.114 30.0254
20.434568 52.189 30.3169
20.582645 52.175 30.9358
20.731796 52.010 31.7744
20.882027 51.742 32.9308
21.033346 51.393 34.6394
21.185762 50.960 36.7631
21.339283 50.440 39.0846
21.493916 49.821 41.8001
21.649670 49.044 44.6182
21.806553 48.092 47.7112
21.964573 46.874 51.0947
22.123737 45.315 54.9799
22.284056 43.352 59.8005
22.445536 40.740 65.7757
22.608185 37.790 76.3860
22.772013 36.553 121.8388
22.937029 37.908 -124.0568
23.103241 40.310 -109.6862
23.270657 42.994 -101.7103
23.439285 45.436 -96.6317
23.609137 47.285 -92.8825
23.780218 48.685 -90.2757
23.952539 49.696 -88.9622
24.126110 50.302 -88.3627
24.300938 50.488 -88.7328
24.477032 50.212 -89.9026
24.654402 49.376 -91.9432
24.833057 47.955 -95.6865
25.013008 45.847 -102.5194
25.194263 43.563 -122.6591
25.376831 43.396 164.8300
25.560722 45.356 120.4015
25.745945 47.602 109.6317
25.932510 49.684 105.0642
26.120428 51.143 103.0004
26.309708 52.018 101.9813
26.500359 52.459 101.6106
26.692390 52.477 101.6555
26.885815 52.087 101.8709
27.080641 51.233 102.3239
27.276878 49.831 103.0098
27.474539 47.765 104.5038
27.673630 44.771 108.9495
27.874165 42.294 131.9986
28.076153 41.942 -117.6586
28.279604 42.995 -100.2614
28.484529 44.454 -96.3973
28.690941 44.902 -92.8124
28.898848 44.407 -86.4241
29.108261 43.698 -66.8557
29.319191 44.057 -23.3839
29.531651 46.350 9.6171
29.745649 48.814 19.4304
29.961199 50.715 21.0679
30.178310 51.838 19.0183
30.396996 52.198 14.8942
30.617264 51.846 8.7864
30.839128 50.792 0.6168
31.062601 49.087 -12.5407
31.287693 47.140 -34.8840
31.514416 45.631 -75.5757
31.742783 45.448 -114.7903
31.972803 45.735 -134.8220
32.204491 45.804 -144.9933
32.437859 45.021 -148.7346
32.672916 43.317 -147.5247
32.909679 40.881 -134.6366
33.148155 39.120 -89.5081
33.388359 38.742 -33.6399
33.630306 39.607 -10.5065
33.874004 40.385 10.4244
34.119469 41.839 50.6293
34.366711 44.532 99.7406
34.615746 47.560 120.3790
34.866585 50.210 128.1525
35.119244 52.044 131.2963
35.373734 53.043 132.1096
35.630066 53.175 132.0367
35.888256 52.379 131.5903
36.148315 50.533 132.1471
36.410259 48.183 139.1132
36.674103 46.959 -105.9191
36.939857 48.371 -71.9960
37.207539 49.856 -67.9675
37.477161 50.415 -64.5343
37.748737 49.892 -57.3558
38.022282 48.839 -37.0275
38.297806 48.925 7.2574
38.575329 50.279 43.0032
38.854862 52.026 58.7849
39.136421 53.153 67.4966
39.420021 53.601 74.3882
39.705673 53.449 80.7507
39.993397 52.730 86.8162
40.283207 51.393 92.2758
40.575115 49.279 97.1752
40.869141 46.651 106.6318
41.165295 45.494 -132.9263
41.463596 46.637 -102.7495
41.764057 48.241 -100.8333
42.066696 48.741 -101.0398
42.371529 48.116 -98.4806
42.678570 46.830 -87.4957
42.987835 46.001 -62.6566
43.299343 46.339 -38.6869
43.613110 47.171 -29.2874
43.929150 47.297 -27.6058
44.247478 46.366 -25.4041
44.568115 44.706 -12.4797
44.891075 43.819 23.5901
45.216373 44.301 50.7618
45.544029 44.971 57.9218
45.874062 44.509 55.4941
46.206486 42.823 50.4200
46.541317 41.030 66.5667
46.878574 41.084 -150.8385
47.218277 41.666 -161.1522
47.560440 41.315 -179.0454
47.905083 40.970 116.6335
48.252224 41.787 39.4753
48.601879 42.604 20.7302
48.954067 42.281 12.8300
49.308807 41.405 20.7064
49.666119 42.059 142.4425
50.026020 43.790 150.4420
50.388531 44.733 146.1680
50.753666 44.172 138.5054
51.121449 42.352 123.0148
51.491894 40.627 52.5262
51.865025 40.334 -10.7966
52.240860 40.594 -22.8755
52.619419 40.249 -28.7471
53.000721 39.891 -41.3453
53.384785 41.169 -74.3293
53.771633 43.801 -104.4347
54.161285 46.168 -118.4293
54.553761 47.434 -126.8210
54.949081 47.330 -133.5829
55.347263 45.869 -138.0068
55.748333 44.127 -127.3724
56.152309 45.234 -85.4058
56.559212 49.092 -113.4077
56.969063 53.037 -148.2684
57.381886 56.162 -169.8846
57.797699 58.213 173.3198
58.216526 59.131 157.7800
58.638386 58.933 141.9830
59.063305 57.668 124.8414
59.491302 55.413 105.6005
59.922401 52.304 85.0571
60.356625 48.666 69.7203
60.793995 45.410 68.3661
61.234531 43.539 73.8922
61.678261 42.198 77.6948
62.125206 40.286 84.9308
62.575390 38.758 93.4848
63.028835 39.550 66.3145
63.485569 41.901 12.4222
63.945610 43.752 -12.3420
64.408989 44.086 -27.8908
64.875725 42.807 -44.2906
65.345840 40.963 -82.8379
65.819366 41.208 -128.7953
66.296318 43.514 -129.0922
66.776726 45.760 -117.1813
67.260620 47.872 -79.5348
67.748016 50.390 -26.9117
68.238945 52.410 -13.2426
68.733429 53.030 -9.1590
69.231499 52.771 13.2577
69.733177 53.314 94.6851
70.238495 54.295 106.0406
70.747475 54.169 97.8207
71.260139 53.306 50.7636
71.776520 53.048 -68.7885
72.296638 52.948 -87.8851
72.820526 52.625 -122.1961
73.348213 53.374 114.1027
73.879723 54.658 103.8204
74.415085 55.099 108.8243
74.954330 54.544 123.8388
75.497482 53.244 145.3655
76.044571 51.275 169.6658
76.595619 48.740 -155.0644
77.150665 46.262 -109.6118
77.709732 44.564 -101.9050
78.272850 44.082 -162.3955
78.840050 44.441 152.9861
79.411354 44.031 143.8103
79.986801 42.192 153.0895
80.566422 39.648 -165.3852
81.150238 37.433 -142.2997
81.738289 36.471 176.2424
82.330597 37.829 75.5674
82.927200 39.909 60.3116
83.528122 41.231 49.2614
84.133400 41.785 37.0302
84.743065 42.881 -96.7326
85.357147 45.126 -150.5135
85.975677 47.537 -147.9791
86.598694 50.288 -111.6185
87.226227 53.325 -76.2586
87.858307 55.589 -74.2876
88.494965 56.470 -84.3010
89.136238 55.916 -100.2520
89.782158 54.064 -120.3539
90.432755 51.256 -137.7672
91.088066 48.786 -64.4084
91.748131 48.435 -44.7409
92.412979 49.145 -79.2219
93.082642 49.885 -136.2214
93.757156 50.561 -165.3880
94.436562 50.894 -167.9510
95.120888 50.706 -162.7911
95.810173 50.087 -158.1473
96.504456 49.914 2.2648
97.203766 49.823 -1.0914
97.908142 48.559 -13.8709
98.617622 46.838 -121.5381
99.332245 47.029 -125.0275
100.052048 49.899 -34.3683
100.777069 53.379 23.1340
101.507339 55.976 40.0226
102.242905 57.004 41.9190
102.983795 56.561 46.0523
103.730057 55.964 123.6531
104.481728 55.992 137.9894
105.238846 55.575 117.2543
106.001450 54.670 -106.5690
106.769577 53.861 -113.5227
107.543274 52.638 -122.4997
108.322578 50.876 -107.9963
109.107529 49.290 -97.8010
109.898170 48.410 -128.1660
110.694534 49.526 176.6256
111.496674 51.536 155.9952
112.304626 52.692 144.0444
113.118431 53.312 -137.0270
113.938133 53.850 -103.2540
114.763779 53.521 -124.1228
115.595406 52.496 122.8940
116.433060 51.763 76.9156
117.276779 51.588 76.5070
118.126617 52.686 114.1768
118.982613 54.513 119.3779
119.844810 55.231 95.7219
120.713257 54.186 62.0895
121.587997 51.819 -22.3293
122.469070 49.428 -52.3095
123.356529 48.412 -43.9318
124.250420 48.275 -39.0801
125.150787 48.718 -22.8491
126.057678 49.455 -4.9492
126.971146 50.063 7.1826
127.891228 51.184 133.9521
128.817978 53.010 179.7736
129.751450 54.670 -165.7814
130.691681 55.811 -151.6627
131.638733 56.093 -143.2978
132.592636 56.126 -110.0236
133.553452 56.454 -105.6917
134.521240 56.053 -121.5772
135.496033 54.593 -115.0823
136.477890 53.053 -44.1248
137.466858 52.041 -4.3577
138.462997 51.002 26.8232
139.466354 50.330 36.0939
140.476990 50.090 -13.7349
141.494949 49.799 -25.1621
142.520279 49.778 -8.3430
143.553040 49.708 -0.2965
144.593277 48.750 12.9391
145.641052 47.287 42.1804
146.696426 46.182 150.4064
147.759445 45.970 -153.6135
148.830170 46.991 -84.1060
149.908661 49.345 -84.1079
150.994965 52.009 117.8925
152.089142 53.943 83.5472
153.191238 54.452 67.7950
154.301331 54.028 62.4578
155.419464 54.142 74.2684
156.545700 54.546 74.8458
157.680099 54.889 58.9310
158.822708 56.575 95.5880
159.973602 59.977 142.7406
161.132843 64.461 -136.3210
162.300476 69.292 -95.2560
163.476578 73.629 -157.9727
164.661194 76.681 -143.4290
165.854401 77.722 -143.7238
167.056244 76.390 -144.9036
168.266800 73.073 -125.0566
169.486130 68.631 -115.4077
170.714294 64.607 -131.2800
171.951355 62.511 -157.6875
173.197388 61.862 140.0959
174.452454 61.114 46.5995
175.716614 59.737 -30.8439
176.989929 57.675 -52.4352
178.272476 55.383 -162.9051
179.564316 54.191 157.5476
180.865509 54.125 154.0034
182.176132 54.813 174.0656
183.496262 55.729 -99.0674
184.825958 56.240 -51.2394
186.165283 56.217 91.0756
187.514313 55.551 116.3270
188.873123 54.358 150.8623
190.241776 53.331 -153.5438
191.620346 53.750 8.6653
193.008911 55.396 19.1483
194.407532 56.925 0.6636
195.816284 57.601 -17.3459
197.235245 57.365 -37.4246
198.664490 57.278 -38.1808
200.104095 58.126 85.4525
201.554138 58.942 147.5295
203.014679 58.860 -178.1158
204.485809 58.413 -15.4767
205.967590 58.431 92.9451
207.460114 59.532 121.6431
208.963455 61.715 164.6246
210.477692 63.579 -162.9336
212.002899 64.140 -149.0968
213.539154 63.606 -147.1455
215.086548 62.457 -169.3988
216.645157 60.848 172.6617
218.215057 59.582 170.8414
219.796341 59.517 177.0360
221.389069 59.427 -153.7760
222.993347 58.358 -127.7120
224.609253 56.469 -135.7540
226.236862 55.061 165.6293
227.876266 54.685 -126.5697
229.527557 54.085 -66.3119
231.190811 52.671 -28.3729
232.866119 51.181 -73.9100
234.553558 50.552 -69.9799
236.253235 50.160 -70.7570
237.965225 50.108 51.1560
239.689621 50.778 102.2554
241.426514 51.210 139.3088
243.175995 50.774 149.9243
244.938141 49.760 18.3466
246.713058 48.256 25.0541
248.500839 46.643 -76.0464
250.301575 46.080 -165.9994
252.115356 46.251 -173.8063
253.942291 46.036 -146.6433
255.782455 45.406 -145.4476
257.635956 44.829 106.9094
259.502899 44.634 89.8295
261.383362 44.575 85.8230
263.277466 43.804 115.1952
265.185272 42.860 119.2662
267.106903 43.155 87.3315
269.042480 43.992 74.4452
270.992065 44.547 54.9546
272.955780 44.857 13.0377
274.933716 45.344 31.4508
276.925995 46.116 64.1053
278.932709 46.542 60.5410
280.953979 46.400 144.7777
282.989899 45.684 -174.7056
285.040558 44.501 -153.4359
287.106079 43.442 -62.5244
289.186554 43.605 14.0398
291.282104 45.300 143.9788
293.392853 46.676 151.9399
295.518890 46.504 139.4624
297.660339 45.418 26.0199
299.817322 44.822 -33.2502
301.989929 44.683 -39.7081
304.178284 44.569 -69.6613
306.382477 45.079 -112.6862
308.602661 46.057 -116.9106
310.838928 46.726 -30.6981
313.091400 46.639 -42.0137
315.360199 46.032 -41.9330
317.645416 45.287 63.0226
319.947205 45.338 91.6685
322.265686 46.340 115.8445
324.600952 47.873 -110.3616
326.953156 49.716 -97.1589
329.322388 51.176 -114.1304
331.708801 51.489 -155.0757
334.112488 50.415 157.5088
336.533600 48.844 91.2791
338.972260 48.036 101.2908
341.428589 48.019 143.6667
343.902710 47.963 177.9629
346.394775 47.623 -156.0645
348.904907 48.104 -173.0259
351.433228 50.022 103.9683
353.979858 52.062 -179.6201
356.544952 52.906 -168.1125
359.128632 52.140 174.3818
361.731018 50.813 162.8042
364.352264 49.828 174.1274
366.992523 48.952 168.0027
369.651917 48.177 134.7954
372.330566 47.941 103.0444
375.028625 48.546 101.4917
377.746246 49.871 133.4988
380.483551 51.198 156.4221
383.240692 51.848 129.6406
386.017822 51.832 67.5416
388.815063 51.398 -10.2286
391.632568 50.833 -53.6372
394.470490 49.652 -86.7404
397.328979 47.536 -100.3962
400.208191 45.422 58.9170
403.108276 44.124 68.4243
406.029358 43.017 80.4697
408.971619 42.447 72.0396
411.935181 42.601 -6.0619
414.920227 42.478 38.5228
417.926910 41.825 40.4365
420.955383 41.366 -143.9714
424.005798 41.866 -148.6580
427.078308 42.792 -113.8813
430.173096 43.498 -70.5183
433.290314 44.473 -88.0078
436.430115 45.969 -136.3486
439.592682 47.506 101.7627
442.778137 48.567 93.0837
445.986694 48.691 117.0610
449.218506 48.174 124.6582
452.473724 47.861 125.1328
455.752533 47.953 -113.4250
459.055115 48.194 -134.0503
462.381622 48.156 -166.1802
465.732239 47.764 138.5474
469.107117 47.035 14.7981
472.506470 46.227 -6.6371
475.930450 46.206 27.1932
479.379242 47.054 69.5310
482.853027 47.882 125.5439
486.351990 48.407 47.1982
489.876282 48.944 26.8527
493.426117 49.396 46.0940
497.001678 49.483 91.4463
500.603149 49.200 136.3423
504.230713 48.636 -119.4380
507.884583 47.388 155.2837
511.564911 45.813 111.5415
515.271912 44.443 94.4756
519.005798 43.330 109.8147
522.766724 42.646 -132.9492
526.554932 42.022 -122.9089
530.370544 41.390 -80.6089
534.213806 40.615 -76.0425
538.084961 40.446 -64.4011
541.984131 41.586 -179.1694
545.911560 43.106 -78.1143
549.867432 44.269 -71.0674
553.851990 44.720 -98.1389
557.865417 44.288 -173.7773
561.907959 43.094 157.4316
565.979797 41.770 -145.5681
570.081116 41.312 -105.9531
574.212158 41.701 -136.5920
578.373108 42.628 156.2349
582.564209 43.767 99.0967
586.785706 44.403 74.9429
591.037781 44.874 162.3022
595.320679 45.733 148.7349
599.634644 46.464 137.2234
603.979858 47.401 111.7803
608.356567 48.501 109.8711
612.764954 48.690 169.5969
617.205322 47.491 -134.5007
621.677856 45.581 -138.8032
626.182800 44.420 165.3130
630.720398 44.664 146.4463
635.290833 46.120 -133.1357
639.894409 47.617 -139.4519
644.531372 48.316 161.7534
649.201904 48.176 126.1123
653.906311 47.308 91.6357
658.644775 46.627 -6.6990
663.417603 46.371 -60.5271
668.224976 45.659 161.3225
673.067200 44.408 133.5298
677.944519 43.995 132.2019
682.857178 44.837 147.0563
687.805420 45.215 150.6366
692.789551 44.586 152.3999
697.809814 43.519 55.4033
702.866455 42.952 47.9253
707.959717 43.713 106.0322
713.089905 45.557 126.0977
718.257263 47.474 146.6267
723.462036 48.628 173.5176
728.704529 48.343 -154.5554
733.985046 47.111 -114.7269
739.303833 46.348 -63.8781
744.661133 46.286 -23.8395
750.057251 46.644 27.4089
755.492493 47.397 95.3735
760.967102 47.816 111.6914
766.481384 47.881 -95.8528
772.035645 47.579 -100.2263
777.630127 46.689 -50.1006
783.265137 45.469 -51.2368
788.940979 44.724 -66.9775
794.657959 44.789 -29.5732
800.416382 45.400 48.3315
806.216553 46.229 67.9773
812.058716 47.529 118.8457
817.943237 49.132 138.7109
823.870361 50.379 159.3721
829.840454 50.881 169.2207
835.853821 50.556 -174.7017
841.910767 49.197 -175.2573
848.011597 47.051 136.1753
854.156616 45.471 98.0271
860.346191 45.562 71.1943
866.580627 46.380 58.4934
872.860229 46.807 15.8088
879.185364 47.171 3.6069
885.556274 48.079 -78.3230
891.973389 48.593 -159.0620
898.437012 47.766 101.1819
904.947449 46.404 39.3364
911.505066 46.222 24.3533
918.110229 46.983 -13.7745
924.763245 47.431 -15.5137
931.464478 47.681 -17.9900
938.214233 47.997 -37.4332
945.012939 47.956 -46.6111
951.860901 47.614 -15.3300
958.758484 47.708 21.0917
965.706055 48.673 36.7400
972.703979 50.135 61.6533
979.752563 51.805 93.6050
986.852234 53.109 96.2339
994.003357 53.747 91.4236
1001.206299 54.053 134.1362
1008.461426 54.540 175.7893
1015.769165 54.443 166.2974
1023.129822 53.346 -137.1143
1030.543823 51.676 -75.1890
1038.011597 49.968 -51.8069
1045.533447 48.430 -36.5117
1053.109863 46.705 -71.4500
1060.741089 44.435 173.8086
1068.427612 42.385 147.9658
1076.169922 42.155 139.4629
1083.968262 43.085 128.6096
1091.823120 43.415 128.4692
1099.734863 42.664 -150.5657
1107.703979 41.629 -168.0859
1115.730835 42.097 111.4546
1123.815918 43.742 114.7478
1131.959595 44.602 131.5803
1140.162231 44.385 118.6763
1148.424316 44.077 170.9287
1156.746216 44.401 -152.8696
1165.128418 44.717 166.9961
1173.571411 44.263 130.7148
1182.075562 43.475 113.8435
1190.641357 43.229 166.7952
1199.269287 43.332 -171.6902
1207.959717 43.015 177.3462
1216.713135 42.653 169.9634
1225.529907 43.229 -172.5801
1234.410645 43.797 139.7876
1243.355713 43.218 107.0342
1252.365601 41.586 -22.6484
1261.440796 40.229 93.7664
1270.581665 40.273 -113.4304
1279.788818 41.058 -46.8552
1289.062744 41.805 84.4436
1298.403809 41.980 73.7632
1307.812622 41.395 40.1672
1317.289551 40.894 111.6079
1326.835205 41.556 -132.4614
1336.449951 43.411 -108.1433
1346.134399 45.458 -67.8887
1355.889038 46.725 -5.3145
1365.714355 47.465 -125.9895
1375.610840 47.777 -169.3848
1385.579102 47.250 143.6951
1395.619629 46.033 112.1792
1405.732910 44.482 127.9348
1415.919434 43.149 -172.7983
1426.179810 42.342 -152.3062
1436.514526 41.063 82.0833
1446.924072 39.262 -9.0977
1457.409058 38.081 -52.5122
1467.970093 37.800 -86.2593
1478.607666 38.063 -143.5107
1489.322266 38.749 -152.6719
1500.114502 39.454 -146.7979
1510.984985 39.568 -137.0474
1521.934204 39.393 -112.7144
1532.962769 39.734 -49.0750
1544.071289 40.559 -97.7688
1555.260254 41.111 -106.3528
1566.530273 41.593 -57.7529
1577.881958 42.541 -45.7627
1589.315918 43.302 126.9502
1600.832764 43.152 101.7288
1612.433105 42.162 109.9285
1624.117432 41.097 -146.7351
1635.886475 40.353 -119.2292
1647.740723 39.501 -91.5156
1659.680908 38.203 -93.4595
1671.707642 36.953 -153.3005
1683.821533 36.786 129.4688
1696.023193 37.426 70.6338
1708.313232 38.043 4.1919
1720.692383 38.577 -5.3850
1733.161255 38.775 -93.6294
1745.720459 38.547 173.5706
1758.370728 38.182 131.7827
1771.112549 37.948 134.6807
1783.946777 38.013 149.7930
1796.874023 38.862 158.0708
1809.894897 40.244 139.3931
1823.010132 41.046 88.2651
1836.220459 40.688 74.2822
1849.526489 39.313 32.0638
1862.928955 37.936 -11.8376
1876.428467 37.771 -72.1334
1890.025879 38.448 -93.4862
1903.721802 39.244 -95.3683
1917.516968 39.998 172.6313
1931.412109 40.474 163.2905
1945.407959 40.664 -169.5453
1959.505127 40.403 -115.7804
1973.704468 40.358 36.5520
1988.006714 40.926 108.3892
2002.412598 40.871 172.1387
2016.922852 40.253 -135.7144
2031.538330 39.950 -107.2861
2046.259644 39.786 -87.8423
2061.087646 39.110 -69.9358
2076.023193 38.719 -72.2097
2091.066895 39.131 -115.4961
2106.219727 39.706 -111.0234
2121.482178 40.568 -10.3828
2136.855225 41.423 48.6357
2152.339844 41.385 148.5337
2167.936523 40.625 176.6819
2183.646240 39.803 169.4631
2199.469727 39.429 157.2556
2215.407959 39.459 148.0640
2231.461670 39.656 101.0627
2247.631836 40.039 87.8875
2263.919189 40.133 88.9626
2280.324463 39.777 -94.8186
2296.848633 39.811 -108.7917
2313.492432 40.295 -118.5371
2330.256836 40.794 62.4255
2347.142822 40.897 64.9590
2364.151123 40.586 80.4775
2381.282715 39.950 139.2390
2398.538574 39.850 170.3044
2415.919434 40.363 170.0190
2433.426270 40.775 162.5305
2451.059814 41.335 168.8547
2468.821289 42.159 -172.5588
2486.711426 42.768 134.6646
2504.731201 43.203 126.2498
2522.881592 43.735 127.5637
2541.163330 44.477 -70.0823
2559.577637 45.298 -95.5977
2578.125488 45.616 -48.0281
2596.807617 45.217 -1.1213
2615.625244 44.935 65.7610
2634.579102 45.391 48.9775
2653.670410 45.820 62.9971
2672.899902 45.578 -165.6760
2692.268799 44.966 146.2520
2711.778076 44.465 158.8152
2731.428711 44.048 172.7917
2751.221680 43.015 -161.1045
2771.158203 41.828 156.9751
2791.239258 41.966 179.7129
2811.465820 42.823 -156.2974
2831.838867 42.946 -152.4536
2852.359619 42.245 176.4167
2873.029053 41.020 153.3799
2893.848145 40.008 110.4829
2914.818115 39.217 136.8186
2935.940186 38.637 138.5542
2957.215332 38.495 136.6775
2978.644531 38.336 108.3455
3000.229004 38.140 34.7930
3021.969971 37.914 7.7102
3043.868408 37.513 -10.0374
3065.925537 37.478 -167.3022
3088.142578 38.224 -125.2361
3110.520508 39.296 -116.2239
3133.060547 39.692 -177.5349
3155.763916 39.293 154.0420
3178.631836 38.875 123.5085
3201.665527 38.675 119.3467
3224.866211 38.572 130.3804
3248.234863 38.473 138.1631
3271.772949 38.393 152.7930
3295.481445 38.748 -129.4172
3319.361816 39.500 -68.6150
3343.415283 40.495 -29.0818
3367.643066 41.214 109.4541
3392.046387 41.279 121.3611
3416.626465 40.284 134.6179
3441.384766 38.842 -102.5215
3466.322510 38.239 -157.9595
3491.440918 38.502 175.8137
3516.741455 38.739 -65.5857
3542.225098 38.988 -67.5107
3567.893555 39.766 -99.0117
3593.748047 40.496 -101.6309
3619.789795 40.338 -67.0251
3646.020264 39.771 -44.5891
3672.440918 39.133 62.4500
