* Measurement data measured by REW V5.30.2
* Source: EXCL: Microphone (Umik-1  Gain: 18dB), MICROPHONE (Master Volume), L, volume: 0.540
* Format: 256k Log Swept Sine, 1 sweep at -20.0 dBFS with no timing reference
* Dated: Jan 11, 2024 5:46:02 PM
* REW Settings:
*  C-weighting compensation: Off
*  Target level: 75.0 dB
* Note: measured 0.5 m away from mic; 
* Measurement: Fan 4
* Smoothing: 1/48 octave
* Frequency Step: 96 ppo
* Start Frequency: 20.141602 Hz
*
* Freq(Hz) SPL(dB) Phase(degrees)
20.141602 56.505 -102.9242
20.287556 55.163 -105.0331
20.434568 53.435 -109.7483
20.582645 51.344 -117.9866
20.731796 48.821 -139.5487
20.882027 47.269 168.8090
21.033346 47.959 130.8000
21.185762 49.607 117.4945
21.339283 50.710 115.1830
21.493916 51.370 117.6957
21.649670 51.840 123.7186
21.806553 52.188 134.1044
21.964573 52.633 145.6874
22.123737 53.362 156.5139
22.284056 54.164 165.5675
22.445536 54.771 171.0638
22.608185 55.120 174.5241
22.772013 55.006 175.6662
22.937029 54.368 175.4270
23.103241 52.996 174.5504
23.270657 50.622 170.8991
23.439285 48.563 161.5958
23.609137 48.360 53.7599
23.780218 49.693 2.3769
23.952539 51.835 -6.1427
24.126110 54.013 -11.5409
24.300938 55.284 -16.4742
24.477032 55.785 -21.8872
24.654402 55.689 -27.4861
24.833057 55.000 -34.7482
25.013008 53.715 -43.1909
25.194263 51.912 -56.2268
25.376831 49.954 -75.5872
25.560722 48.128 -110.9843
25.745945 47.254 -150.3044
25.932510 47.205 -179.5894
26.120428 46.829 163.3325
26.309708 45.965 147.7515
26.500359 44.686 129.7879
26.692390 43.914 67.7213
26.885815 45.496 -8.2032
27.080641 48.135 -27.9681
27.276878 50.161 -37.2583
27.474539 51.568 -43.4041
27.673630 52.264 -47.6946
27.874165 52.409 -50.4365
28.076153 52.111 -51.3427
28.279604 51.595 -50.5673
28.484529 51.015 -47.6681
28.690941 50.675 -44.6432
28.898848 50.633 -42.2679
29.108261 50.837 -43.0291
29.319191 51.115 -46.2537
29.531651 51.281 -52.2796
29.745649 51.175 -59.1279
29.961199 50.694 -67.1694
30.178310 49.665 -74.5164
30.396996 47.942 -81.9965
30.617264 45.259 -88.0444
30.839128 42.474 -93.4620
31.062601 40.588 72.5612
31.287693 40.764 75.3779
31.514416 41.730 75.2975
31.742783 41.623 82.2982
31.972803 42.142 113.9534
32.204491 43.987 168.7637
32.437859 46.722 -173.2774
32.672916 49.038 -169.4710
32.909679 50.243 -170.3515
33.148155 50.340 -173.2589
33.388359 49.427 -178.1419
33.630306 48.004 169.2762
33.874004 48.593 56.7089
34.119469 50.981 15.8792
34.366711 53.806 8.6666
34.615746 55.802 5.7003
34.866585 56.961 4.4255
35.119244 57.388 4.4930
35.373734 57.186 6.2008
35.630066 56.410 9.6616
35.888256 55.105 15.7134
36.148315 53.326 25.1710
36.410259 51.177 39.3560
36.674103 48.908 62.0256
36.939857 47.005 98.2499
37.207539 46.348 141.4380
37.477161 46.775 171.4614
37.748737 47.574 -170.9900
38.022282 47.957 -160.4525
38.297806 47.609 -153.8659
38.575329 46.374 -148.9656
38.854862 44.209 -143.6735
39.136421 41.389 -128.4811
39.420021 40.093 -26.1098
39.705673 40.856 2.4620
39.993397 42.213 3.8309
40.283207 42.695 -0.7358
40.575115 42.315 -8.9608
40.869141 41.309 -19.8044
41.165295 39.899 -31.6664
41.463596 38.293 -40.6918
41.764057 36.764 -41.3962
42.066696 35.827 -31.5771
42.371529 35.853 -20.6870
42.678570 36.385 -19.6110
42.987835 37.284 -34.0782
43.299343 39.007 -73.6718
43.613110 41.686 -118.0472
43.929150 44.418 -142.1971
44.247478 46.479 -157.0023
44.568115 47.690 -168.6884
44.891075 48.012 -179.2513
45.216373 47.422 170.8305
45.544029 45.877 162.2120
45.874062 43.399 158.2183
46.206486 40.603 174.5138
46.541317 39.326 -131.4102
46.878574 40.244 -113.2513
47.218277 41.075 -110.9478
47.560440 41.192 -105.8135
47.905083 41.240 -92.3251
48.252224 41.830 -77.4036
48.601879 42.477 -71.8319
48.954067 42.410 -76.2541
49.308807 41.475 -92.2532
49.666119 40.693 -145.5558
50.026020 41.153 143.8814
50.388531 42.139 121.4543
50.753666 42.545 111.7122
51.121449 42.328 106.2577
51.491894 42.194 99.7343
51.865025 42.891 85.3818
52.240860 44.380 63.2349
52.619419 45.968 42.0688
53.000721 47.032 26.2263
53.384785 47.256 15.0785
53.771633 46.549 7.7896
54.161285 44.949 3.8439
54.553761 42.586 1.6367
54.949081 39.858 -4.5215
55.347263 38.416 -116.0157
55.748333 39.650 -171.0350
56.152309 41.223 176.9563
56.559212 41.563 168.1016
56.969063 40.646 165.3923
57.381886 39.558 176.3201
57.797699 39.976 -171.4440
58.216526 41.389 178.8557
58.638386 42.525 150.7302
59.063305 43.105 111.6370
59.491302 43.126 69.9128
59.922401 42.573 26.2134
60.356625 41.591 -26.9119
60.793995 40.385 -82.2773
61.234531 38.953 -122.4510
61.678261 37.729 -159.8396
62.125206 37.765 15.8695
62.575390 38.239 -1.5636
63.028835 37.565 -12.5062
63.485569 35.402 -13.5100
63.945610 32.475 6.6606
64.408989 30.056 26.4545
64.875725 28.981 26.2482
65.345840 30.476 54.7408
65.819366 33.734 78.6631
66.296318 36.413 74.0497
66.776726 37.555 67.7140
67.260620 37.001 65.5912
67.748016 35.034 73.7039
68.238945 32.824 95.7142
68.733429 32.956 85.0244
69.231499 35.848 25.7791
69.733177 38.918 9.6475
70.238495 40.916 2.8832
70.747475 41.625 -4.1710
71.260139 41.022 -13.8607
71.776520 39.197 -24.2397
72.296638 36.870 -12.2063
72.820526 36.013 68.1614
73.348213 36.841 77.6423
73.879723 38.293 109.3409
74.415085 40.447 157.0275
74.954330 42.303 166.0660
75.497482 43.694 -173.7993
76.044571 45.640 -64.4087
76.595619 47.391 -56.7277
77.150665 48.070 -48.3843
77.709732 48.723 -1.6053
78.272850 50.014 34.8710
78.840050 50.578 40.7748
79.411354 49.755 45.8211
79.986801 48.196 60.2601
80.566422 46.816 70.1777
81.150238 45.354 62.6384
81.738289 43.281 46.1896
82.330597 41.246 -154.8510
82.927200 39.993 -162.1808
83.528122 39.496 -137.7708
84.133400 40.154 -100.6864
84.743065 40.770 -111.5634
85.357147 40.653 -160.7597
85.975677 40.250 145.3056
86.598694 39.619 132.3098
87.226227 39.277 138.8592
87.858307 40.095 135.2684
88.494965 41.515 109.5225
89.136238 42.434 88.7595
89.782158 42.204 83.9790
90.432755 41.077 106.2820
91.088066 40.152 153.3433
91.748131 39.327 166.2576
92.412979 37.668 155.5087
93.082642 35.795 91.4805
93.757156 36.109 -4.2334
94.436562 38.761 -39.7720
95.120888 41.445 -50.4885
95.810173 43.090 -48.7605
96.504456 43.718 -35.5149
97.203766 44.039 -9.2586
97.908142 44.428 5.3749
98.617622 44.288 -2.8465
99.332245 43.263 -25.2621
100.052048 42.039 -31.2459
100.777069 42.154 53.0392
101.507339 42.994 58.5809
102.242905 42.804 60.1969
102.983795 41.580 67.8681
103.730057 40.546 62.7632
104.481728 40.802 32.3375
105.238846 41.552 17.3254
106.001450 41.583 21.3560
106.769577 40.627 33.1360
107.543274 38.857 38.5909
108.322578 37.267 1.5594
109.107529 37.552 -141.6039
109.898170 38.677 -166.7538
110.694534 39.128 176.6243
111.496674 39.115 171.5505
112.304626 39.818 161.5239
113.118431 41.391 83.8298
113.938133 42.916 -14.3517
114.763779 43.638 -52.4301
115.595406 43.901 -52.3716
116.433060 44.832 26.8909
117.276779 46.713 20.7726
118.126617 49.378 76.7441
118.982613 51.792 78.2867
119.844810 52.753 57.1013
120.713257 51.905 26.5160
121.587997 49.571 -35.0948
122.469070 46.538 -82.0710
123.356529 44.136 -86.0275
124.250420 43.032 -121.1779
125.150787 42.442 149.1877
126.057678 41.764 46.4910
126.971146 40.943 -38.6890
127.891228 39.784 -71.2507
128.817978 38.934 155.3643
129.751450 39.332 -131.4147
130.691681 40.454 -71.5187
131.638733 40.835 -57.6433
132.592636 40.399 -5.5471
133.553452 40.061 100.1919
134.521240 39.550 108.9022
135.496033 38.836 -40.7642
136.477890 38.726 -49.0996
137.466858 39.758 -109.3383
138.462997 41.530 165.7623
139.466354 42.339 159.8081
140.476990 41.568 143.8312
141.494949 40.284 110.4874
142.520279 40.163 108.4813
143.553040 40.642 109.1995
144.593277 40.521 78.0895
145.641052 40.224 10.7253
146.696426 40.748 -84.2114
147.759445 42.641 -68.6274
148.830170 44.883 -16.1245
149.908661 46.133 3.0964
150.994965 45.877 10.7731
152.089142 44.763 -154.4849
153.191238 44.162 -147.1948
154.301331 44.560 162.0503
155.419464 44.816 78.6882
156.545700 43.971 12.1931
157.680099 42.162 -126.9485
158.822708 40.480 90.9712
159.973602 40.430 72.0039
161.132843 41.531 54.2908
162.300476 42.850 20.7881
163.476578 44.000 11.3804
164.661194 44.868 26.6143
165.854401 45.112 23.9609
167.056244 45.030 30.1807
168.266800 44.857 29.1550
169.486130 44.425 22.5842
170.714294 44.270 18.0930
171.951355 44.562 25.0051
173.197388 44.976 18.1797
174.452454 45.502 7.8774
175.716614 46.318 16.3223
176.989929 46.821 61.1624
178.272476 46.730 100.5942
179.564316 45.922 117.5139
180.865509 44.993 -7.1077
182.176132 44.242 -33.3638
183.496262 44.013 2.1687
184.825958 45.217 19.2764
186.165283 46.485 10.8701
187.514313 46.366 11.9258
188.873123 44.890 24.6472
190.241776 43.397 22.1672
191.620346 42.826 13.0974
193.008911 43.098 10.9336
194.407532 44.746 23.6636
195.816284 46.622 50.8179
197.235245 47.135 51.1213
198.664490 46.020 -61.8262
200.104095 44.151 -80.8477
201.554138 43.460 -41.4583
203.014679 44.222 -44.8608
204.485809 44.445 -53.6797
205.967590 44.050 -57.9783
207.460114 44.162 -59.5378
208.963455 44.695 -22.8101
210.477692 44.843 -38.3052
212.002899 44.762 -67.7939
213.539154 44.822 -107.8252
215.086548 44.471 -163.5071
216.645157 44.060 139.4146
218.215057 44.122 157.8831
219.796341 44.091 -171.0002
221.389069 43.667 -173.4705
222.993347 43.422 -148.0000
224.609253 43.121 -130.2300
226.236862 42.506 -76.4756
227.876266 42.391 -65.2051
229.527557 42.766 -65.8730
231.190811 43.439 -42.9119
232.866119 44.644 -27.0112
234.553558 46.029 -9.1711
236.253235 46.705 -19.1448
237.965225 46.092 -32.5442
239.689621 44.834 -43.3140
241.426514 45.366 -75.5598
243.175995 47.316 -70.7722
244.938141 48.469 -52.8027
246.713058 48.123 -56.4197
248.500839 47.194 -99.1094
250.301575 47.358 -129.8503
252.115356 48.315 -158.5815
253.942291 50.094 -172.4546
255.782455 52.159 -138.3662
257.635956 53.213 -129.6516
259.502899 52.768 -137.9219
261.383362 51.537 -111.1155
263.277466 50.610 -72.6685
265.185272 50.397 -67.9236
267.106903 51.055 -62.2476
269.042480 51.851 125.7095
270.992065 51.856 142.5552
272.955780 50.564 160.7563
274.933716 48.727 -177.9475
276.925995 47.591 -149.3848
278.932709 47.507 -122.1519
280.953979 48.155 -95.8872
282.989899 49.074 -90.8999
285.040558 50.250 -99.7542
287.106079 51.421 -113.5002
289.186554 52.509 -124.6892
291.282104 53.461 -128.2700
293.392853 53.376 -129.4714
295.518890 51.867 -127.4170
297.660339 49.957 -128.5107
299.817322 49.310 -131.3547
301.989929 50.223 -124.3772
304.178284 51.273 -114.9700
306.382477 51.739 -117.0701
308.602661 51.557 -127.1260
310.838928 50.775 -131.7512
313.091400 49.864 -124.2119
315.360199 49.393 -121.0779
317.645416 49.381 -124.6892
319.947205 49.509 -133.8662
322.265686 50.063 -149.2083
324.600952 51.065 -157.1226
326.953156 52.146 -160.7654
329.322388 53.374 -161.8755
331.708801 54.839 -160.9797
334.112488 56.133 -159.3604
336.533600 56.744 -178.9399
338.972260 56.969 177.2002
341.428589 57.030 -176.1443
343.902710 56.931 160.8992
346.394775 56.913 140.4651
348.904907 57.099 129.0171
351.433228 57.488 77.7234
353.979858 58.215 110.9080
356.544952 59.960 161.2026
359.128632 62.067 166.0474
361.731018 62.991 161.9656
364.352264 62.244 152.7483
366.992523 60.281 147.6111
369.651917 57.787 -166.6743
372.330566 55.680 -153.8916
375.028625 54.240 177.7021
377.746246 53.456 157.8691
380.483551 53.616 177.7068
383.240692 53.808 -134.8508
386.017822 53.500 -95.8379
388.815063 53.582 -176.5574
391.632568 53.605 152.4902
394.470490 52.388 148.3645
397.328979 50.757 150.7039
400.208191 50.693 130.1597
403.108276 51.802 139.7207
406.029358 53.219 176.5288
408.971619 54.837 -168.8823
411.935181 55.736 -159.2400
414.920227 55.443 -152.4058
417.926910 54.680 -156.9832
420.955383 55.224 -172.9939
424.005798 57.411 171.2595
427.078308 59.213 168.4797
430.173096 59.415 158.3054
433.290314 58.512 173.0828
436.430115 57.608 -178.1978
439.592682 57.105 105.0276
442.778137 56.881 134.3022
445.986694 57.100 86.7468
449.218506 57.343 118.2585
452.473724 57.231 166.4172
455.752533 57.477 -153.6765
459.055115 58.194 -160.5571
462.381622 58.717 -177.7527
465.732239 58.422 163.2725
469.107117 57.240 140.9731
472.506470 55.629 135.3428
475.930450 54.117 135.4036
479.379242 53.275 136.2112
482.853027 52.953 142.3088
486.351990 53.212 139.5693
489.876282 54.602 119.2688
493.426117 56.054 153.1638
497.001678 56.327 -162.8833
500.603149 55.226 -178.6150
504.230713 53.683 174.1792
507.884583 53.343 -157.2585
511.564911 54.964 -168.1541
515.271912 57.186 -175.0120
519.005798 58.832 -176.5403
522.766724 59.854 172.7017
526.554932 60.137 161.0945
530.370544 59.507 164.1445
534.213806 58.261 167.0771
538.084961 57.047 146.0217
541.984131 56.376 154.0447
545.911560 56.245 153.4783
549.867432 56.196 147.5757
553.851990 55.960 152.3503
557.865417 56.112 162.9033
561.907959 56.643 176.9294
565.979797 56.672 172.3716
570.081116 56.243 139.9731
574.212158 56.466 128.8198
578.373108 57.089 128.0732
582.564209 56.902 117.2795
586.785706 55.619 102.2522
591.037781 54.652 109.5093
595.320679 55.332 146.8901
599.634644 56.983 -162.5554
603.979858 58.580 -177.0281
608.356567 59.533 159.4675
612.764954 59.953 150.6069
617.205322 60.425 145.1028
621.677856 60.866 133.4280
626.182800 60.808 120.2783
630.720398 60.316 105.7834
635.290833 59.787 94.5312
639.894409 59.279 92.3855
644.531372 58.863 90.2983
649.201904 58.240 85.3408
653.906311 57.459 90.9753
658.644775 56.757 104.8264
663.417603 55.955 114.0203
668.224976 55.368 113.8508
673.067200 55.331 125.1401
677.944519 55.786 117.6887
682.857178 56.569 112.6377
687.805420 57.702 126.2056
692.789551 59.081 139.1455
697.809814 59.917 147.9014
702.866455 60.009 144.6438
707.959717 59.681 120.9548
713.089905 59.303 96.8613
718.257263 58.966 83.3052
723.462036 58.106 85.2073
728.704529 56.757 97.2749
733.985046 55.979 129.1887
739.303833 56.148 127.5542
744.661133 56.701 102.0979
750.057251 57.677 88.7883
755.492493 58.449 89.2898
760.967102 58.329 83.9331
766.481384 57.526 82.3948
772.035645 56.910 123.9797
777.630127 57.378 116.8467
783.265137 58.540 90.2278
788.940979 59.348 81.3052
794.657959 59.426 83.7720
800.416382 59.090 88.9756
806.216553 58.352 84.0618
812.058716 57.388 75.0559
817.943237 57.286 80.6150
823.870361 57.527 86.0259
829.840454 57.237 78.1006
835.853821 57.288 79.7822
841.910767 58.315 84.2444
848.011597 59.284 72.0476
854.156616 59.179 58.2302
860.346191 58.043 45.9783
866.580627 56.899 59.1238
872.860229 56.512 102.4204
879.185364 56.123 109.1052
885.556274 55.241 109.4053
891.973389 54.998 98.3975
898.437012 55.555 82.7893
904.947449 55.852 81.9590
911.505066 55.674 71.6125
918.110229 56.046 41.5125
924.763245 56.796 29.1858
931.464478 57.170 6.1748
938.214233 57.886 -168.3416
945.012939 59.001 156.6162
951.860901 59.558 124.2620
958.758484 59.334 101.8674
965.706055 58.184 88.0293
972.703979 56.434 80.7458
979.752563 54.844 93.1816
986.852234 53.962 100.2458
994.003357 54.091 105.3289
1001.206299 55.172 126.2778
1008.461426 56.662 131.9417
1015.769165 57.745 119.0706
1023.129822 57.822 97.6238
1030.543823 56.869 80.9243
1038.011597 55.664 81.3459
1045.533447 55.148 105.9661
1053.109863 55.455 117.2144
1060.741089 55.606 111.3274
1068.427612 55.448 117.2876
1076.169922 55.596 115.7126
1083.968262 56.283 101.2119
1091.823120 56.917 98.7441
1099.734863 57.157 103.2344
1107.703979 57.167 110.2947
1115.730835 56.834 109.6389
1123.815918 56.358 103.8711
1131.959595 56.056 97.5862
1140.162231 56.353 94.5693
1148.424316 57.584 98.9717
1156.746216 59.176 93.2087
1165.128418 60.062 81.5239
1173.571411 59.827 73.3813
1182.075562 59.009 68.9294
1190.641357 58.784 77.1628
1199.269287 59.271 89.8516
1207.959717 59.467 93.1948
1216.713135 59.634 96.8262
1225.529907 60.095 92.6858
1234.410645 60.428 75.8625
1243.355713 60.292 64.0837
1252.365601 59.442 57.9900
1261.440796 58.872 53.6401
1270.581665 59.529 70.2456
1279.788818 60.555 79.6926
1289.062744 60.923 68.5754
1298.403809 60.933 66.8894
1307.812622 60.969 57.8760
1317.289551 60.458 36.1980
1326.835205 59.364 20.8228
1336.449951 58.619 34.2112
1346.134399 59.024 51.2339
1355.889038 59.818 47.6216
1365.714355 60.712 40.2302
1375.610840 61.988 27.5413
1385.579102 63.356 14.2490
1395.619629 64.163 0.1758
1405.732910 64.248 20.1648
1415.919434 63.951 25.5654
1426.179810 63.344 50.7131
1436.514526 62.392 71.7888
1446.924072 61.979 66.6375
1457.409058 63.049 67.7161
1467.970093 64.752 66.0732
1478.607666 66.407 65.9883
1489.322266 67.862 59.2798
1500.114502 68.750 53.7375
1510.984985 68.380 65.4912
1521.934204 66.811 78.0400
1532.962769 65.095 146.7368
1544.071289 64.184 106.0039
1555.260254 64.111 96.0784
1566.530273 64.378 102.6362
1577.881958 64.937 90.4304
1589.315918 65.523 59.4097
1600.832764 65.446 47.9792
1612.433105 64.428 47.6260
1624.117432 63.922 36.8767
1635.886475 64.950 19.6958
1647.740723 65.834 9.2585
1659.680908 65.795 7.0439
1671.707642 65.760 11.4275
1683.821533 66.033 28.2971
1696.023193 66.263 27.4846
1708.313232 66.262 -19.3699
1720.692383 66.058 -62.6858
1733.161255 66.073 -130.7937
1745.720459 66.167 -27.3113
1758.370728 66.046 12.5129
1771.112549 65.966 43.5979
1783.946777 65.900 62.4290
1796.874023 65.727 75.6926
1809.894897 65.859 84.2263
1823.010132 65.781 63.8455
1836.220459 65.484 21.8799
1849.526489 65.673 33.3291
1862.928955 66.046 48.5059
1876.428467 65.855 61.5920
1890.025879 65.586 78.8992
1903.721802 65.968 89.0942
1917.516968 66.613 70.8833
1931.412109 66.941 34.7432
1945.407959 67.629 8.9976
1959.505127 70.431 0.3772
1973.704468 74.358 4.2058
1988.006714 76.953 -9.6040
2002.412598 76.705 -15.0227
2016.922852 73.649 30.8887
2031.538330 69.245 88.5740
2046.259644 65.846 82.0686
2061.087646 64.640 59.1475
2076.023193 64.538 44.0193
2091.066895 64.613 30.9841
2106.219727 64.597 24.7424
2121.482178 64.450 16.9695
2136.855225 64.296 5.2095
2152.339844 64.312 61.9878
2167.936523 64.893 51.7908
2183.646240 65.919 8.6912
2199.469727 66.447 6.6921
2215.407959 66.257 22.0967
2231.461670 66.048 22.9431
2247.631836 65.885 27.9941
2263.919189 65.494 41.7927
2280.324463 65.008 35.2708
2296.848633 64.200 36.6318
2313.492432 63.635 54.4587
2330.256836 63.761 52.2996
2347.142822 64.135 46.7844
2364.151123 64.224 47.9788
2381.282715 64.319 34.2478
2398.538574 64.994 37.8413
2415.919434 65.987 44.9573
2433.426270 66.905 36.9128
2451.059814 67.276 35.9500
2468.821289 67.097 26.6194
2486.711426 66.906 30.6111
2504.731201 67.022 23.4197
2522.881592 67.656 -6.3311
2541.163330 68.038 -12.4304
2559.577637 68.258 7.9961
2578.125488 68.779 4.1821
2596.807617 69.003 -74.1653
2615.625244 68.550 137.9370
2634.579102 67.892 54.5708
2653.670410 67.598 41.8459
2672.899902 67.418 35.7881
2692.268799 67.263 15.3521
2711.778076 67.010 16.6033
2731.428711 66.766 27.8257
2751.221680 67.139 10.5234
2771.158203 67.821 3.5100
2791.239258 68.209 8.5732
2811.465820 68.716 14.1062
2831.838867 68.947 -3.4363
2852.359619 68.768 -22.9954
2873.029053 68.233 -32.8938
2893.848145 67.824 25.2090
2914.818115 68.133 -3.9758
2935.940186 68.581 -5.5718
2957.215332 68.782 10.8652
2978.644531 68.727 11.7397
3000.229004 68.642 -27.4150
3021.969971 68.096 -35.2092
3043.868408 67.302 -26.6838
3065.925537 66.455 -27.3347
3088.142578 65.282 -17.9080
3110.520508 64.318 -16.3015
3133.060547 63.635 -2.3184
3155.763916 62.846 -0.7888
3178.631836 62.481 1.0081
3201.665527 62.467 8.5674
3224.866211 62.320 11.7295
3248.234863 62.361 14.9980
3271.772949 62.913 -6.9314
3295.481445 63.676 -46.7502
3319.361816 64.256 -36.3394
3343.415283 64.935 42.9680
3367.643066 65.526 31.1941
3392.046387 65.636 -0.8706
3416.626465 65.836 4.9092
3441.384766 66.171 1.4717
3466.322510 65.984 -8.2429
3491.440918 65.969 -19.6111
3516.741455 66.497 -76.3047
3542.225098 67.123 -83.7717
3567.893555 67.658 -63.9045
3593.748047 68.190 -57.1167
3619.789795 68.690 -19.1807
3646.020264 69.145 31.4553
3672.440918 69.558 -3.8547
3699.052979 70.095 -54.2942
3725.857910 70.525 -40.9541
3752.856934 70.805 -14.6255
3780.051758 71.433 -113.9004
3807.443604 72.408 -110.3660
3835.033936 73.426 -54.7175
3862.824219 74.453 -39.7571
3890.815918 75.284 -91.2488
3919.010254 76.014 -127.8430
