* Measurement data measured by REW V5.30.2
* Source: EXCL: Microphone (Umik-1  Gain: 18dB), MICROPHONE (Master Volume), L, volume: 0.540
* Format: 256k Log Swept Sine, 1 sweep at -20.0 dBFS with no timing reference
* Dated: Jan 17, 2024 5:45:29 PM
* REW Settings:
*  C-weighting compensation: Off
*  Target level: 75.0 dB
* Note: ; 
* Measurement: Bad Fan 5
* Smoothing: 1/48 octave
* Frequency Step: 96 ppo
* Start Frequency: 20.141602 Hz
*
* Freq(Hz) SPL(dB) Phase(degrees)
20.141602 73.882 33.6988
20.287556 73.564 30.4932
20.434568 73.138 27.8329
20.582645 72.507 27.0747
20.731796 71.562 28.4402
20.882027 70.578 32.7596
21.033346 69.684 41.9465
21.185762 69.132 55.5406
21.339283 69.346 69.4368
21.493916 70.190 81.1814
21.649670 71.101 88.4653
21.806553 71.915 92.2505
21.964573 72.482 94.2090
22.123737 72.662 94.9433
22.284056 72.460 95.0296
22.445536 71.837 95.6585
22.608185 70.782 96.8308
22.772013 69.244 100.0391
22.937029 67.211 107.6114
23.103241 65.384 122.6205
23.270657 64.256 150.3615
23.439285 64.005 -179.9806
23.609137 64.731 -161.7975
23.780218 65.691 -151.2791
23.952539 66.101 -143.9382
24.126110 66.072 -137.3885
24.300938 65.694 -129.2234
24.477032 65.126 -118.5255
24.654402 64.757 -105.8360
24.833057 64.624 -91.8394
25.013008 64.681 -80.9264
25.194263 64.784 -72.8893
25.376831 64.516 -68.0905
25.560722 63.730 -65.6792
25.745945 62.063 -63.8921
25.932510 59.738 -62.3878
26.120428 58.011 -50.7880
26.309708 57.702 82.6165
26.500359 59.474 95.0002
26.692390 62.037 95.2227
26.885815 63.608 93.2610
27.080641 64.343 90.4478
27.276878 64.414 87.3663
27.474539 63.858 83.8451
27.673630 62.715 80.0884
27.874165 60.953 75.5516
28.076153 58.533 69.5944
28.279604 55.559 59.1982
28.484529 52.290 34.1138
28.690941 50.461 -21.4915
28.898848 49.908 -56.2675
29.108261 50.078 -67.5272
29.319191 50.089 -71.5413
29.531651 49.182 -72.4056
29.745649 47.549 -69.6004
29.961199 45.868 -47.1542
30.178310 46.874 59.3099
30.396996 49.594 72.3661
30.617264 51.928 69.2120
30.839128 53.552 61.5270
31.062601 54.384 48.7430
31.287693 54.854 30.3774
31.514416 55.301 5.4578
31.742783 56.085 -23.7365
31.972803 57.044 -48.5029
32.204491 57.949 -68.7675
32.437859 58.415 -84.9491
32.672916 58.299 -99.1195
32.909679 57.510 -114.2107
33.148155 56.030 -131.3493
33.388359 54.267 -157.6364
33.630306 52.820 153.2573
33.874004 52.569 104.2381
34.119469 52.924 77.6275
34.366711 52.933 61.7644
34.615746 51.999 53.0246
34.866585 50.169 50.6631
35.119244 48.051 68.3630
35.373734 48.099 113.6302
35.630066 49.758 128.8737
35.888256 51.621 124.0529
36.148315 52.691 110.4694
36.410259 53.174 92.4397
36.674103 53.282 69.7103
36.939857 53.241 42.4830
37.207539 53.224 13.8746
37.477161 53.274 -14.3132
37.748737 53.361 -40.7335
38.022282 53.385 -63.8758
38.297806 53.192 -82.4407
38.575329 52.658 -97.1161
38.854862 51.692 -108.2639
39.136421 50.257 -115.7073
39.420021 48.423 -121.0492
39.705673 46.444 -128.0229
39.993397 44.931 -143.2099
40.283207 44.749 -172.0208
40.575115 46.017 160.7320
40.869141 47.433 146.6573
41.165295 48.302 142.4542
41.463596 48.688 148.1805
41.764057 49.407 169.6141
42.066696 51.387 -161.6621
42.371529 53.792 -148.3279
42.678570 55.733 -146.5337
42.987835 56.855 -150.1889
43.299343 57.099 -157.0471
43.613110 56.479 -166.5229
43.929150 55.010 -178.8859
44.247478 52.725 164.3853
44.568115 49.851 136.5875
44.891075 47.201 76.7990
45.216373 45.651 21.3141
45.544029 45.163 0.4484
45.874062 45.260 -2.1771
46.206486 46.249 10.4689
46.541317 48.229 26.2324
46.878574 50.202 33.7251
47.218277 51.412 35.6198
47.560440 51.615 36.2972
47.905083 50.742 39.1000
48.252224 48.879 49.0710
48.601879 46.687 79.4709
48.954067 45.378 132.7153
49.308807 45.081 168.4060
49.666119 45.300 -158.0736
50.026020 46.326 -110.5100
50.388531 48.093 -70.7811
50.753666 49.920 -44.7211
51.121449 51.433 -23.6160
51.491894 52.556 -6.0309
51.865025 53.121 7.0980
52.240860 52.857 16.5250
52.619419 51.529 24.6469
53.000721 49.163 36.9035
53.384785 46.836 102.8808
53.771633 46.250 -171.1506
54.161285 46.564 -153.5202
54.553761 46.401 -137.9322
54.949081 46.278 -104.0820
55.347263 47.728 -4.6652
55.748333 50.099 23.3610
56.152309 51.697 33.1218
56.559212 52.000 42.1098
56.969063 51.411 62.1308
57.381886 51.233 107.2550
57.797699 51.910 137.0017
58.216526 52.146 144.1718
58.638386 51.012 143.9913
59.063305 48.560 145.9207
59.491302 46.042 -115.1646
59.922401 44.965 -97.1566
60.356625 45.184 -150.0827
60.793995 46.126 144.4269
61.234531 46.652 120.0750
61.678261 46.101 105.9991
62.125206 45.660 -86.5997
62.575390 46.351 -95.3766
63.028835 46.707 -105.2454
63.485569 46.018 -119.8351
63.945610 45.656 98.8469
64.408989 46.277 68.8250
64.875725 46.312 61.8607
65.345840 45.371 63.0690
65.819366 45.192 -151.1406
66.296318 46.276 -136.7042
66.776726 47.047 -126.5952
67.260620 47.373 -104.9326
67.748016 47.865 -80.5584
68.238945 48.232 -70.6523
68.733429 47.789 -73.6374
69.231499 46.300 -85.5041
69.733177 44.096 -105.5920
70.238495 42.696 124.3074
70.747475 43.493 51.1008
71.260139 44.705 36.7275
71.776520 44.822 32.6288
72.296638 44.396 58.7319
72.820526 44.979 132.4997
73.348213 45.863 149.0433
73.879723 45.553 155.7921
74.415085 43.949 165.7198
74.954330 42.424 -172.2278
75.497482 43.209 6.5719
76.044571 45.123 18.9768
76.595619 46.178 27.2161
77.150665 46.113 31.4358
77.709732 45.354 23.3354
78.272850 44.685 -12.6967
78.840050 44.629 -48.7769
79.411354 44.899 -50.9466
79.986801 45.943 -28.4459
80.566422 47.854 -23.6528
81.150238 50.020 -64.8264
81.738289 52.272 -140.0234
82.330597 53.917 -173.4691
82.927200 54.259 163.6495
83.528122 53.252 135.8796
84.133400 51.504 72.6691
84.743065 49.899 -4.1252
85.357147 48.337 -40.3387
85.975677 46.325 -83.8384
86.598694 44.291 -141.7563
87.226227 43.049 -152.3919
87.858307 43.253 -112.1570
88.494965 44.113 -85.6948
89.136238 43.941 -75.7482
89.782158 42.381 -64.5517
90.432755 40.620 -58.1733
91.088066 41.006 158.5428
91.748131 43.098 121.2133
92.412979 45.082 60.3811
93.082642 46.497 2.5041
93.757156 47.126 -40.5819
94.436562 47.273 -107.9438
95.120888 47.372 -175.6185
95.810173 47.220 130.7703
96.504456 46.664 64.5597
97.203766 45.617 31.8914
97.908142 44.625 65.9973
98.617622 45.780 130.1713
99.332245 49.593 137.3107
100.052048 53.999 102.7197
100.777069 57.382 80.7040
101.507339 59.052 67.3215
102.242905 58.705 58.6237
102.983795 56.501 61.4614
103.730057 53.307 109.0762
104.481728 50.740 87.0782
105.238846 49.920 18.5477
106.001450 49.666 16.4429
106.769577 49.528 139.5345
107.543274 49.309 159.5598
108.322578 48.159 -176.7016
109.107529 46.551 -114.7272
109.898170 45.413 -46.4579
110.694534 44.758 -26.9775
111.496674 43.543 -43.8575
112.304626 41.859 -68.1147
113.118431 41.146 -42.0626
113.938133 41.566 -15.5622
114.763779 42.011 17.3901
115.595406 42.717 58.6647
116.433060 43.549 71.7962
117.276779 44.902 -172.2436
118.126617 47.149 -147.2786
118.982613 49.693 -126.1349
119.844810 51.483 -129.9127
120.713257 51.627 -155.5880
121.587997 50.180 165.9533
122.469070 48.149 156.1032
123.356529 46.907 174.3474
124.250420 46.127 -165.9391
125.150787 45.721 -56.2472
126.057678 45.836 -17.8222
126.971146 45.909 21.4185
127.891228 45.988 82.0880
128.817978 46.328 97.9619
129.751450 46.844 -33.6159
130.691681 47.183 -52.4416
131.638733 47.570 -51.4730
132.592636 49.093 -58.5266
133.553452 50.431 -77.8799
134.521240 50.123 -90.7911
135.496033 48.351 -95.7766
136.477890 47.277 -61.7415
137.466858 48.317 65.5921
138.462997 49.069 55.4622
139.466354 48.185 59.0994
140.476990 46.094 86.4688
141.494949 43.986 162.5196
142.520279 42.923 -164.9905
143.553040 42.111 168.0099
144.593277 40.778 134.0726
145.641052 39.997 116.3989
146.696426 41.711 -138.4139
147.759445 45.082 -83.0620
148.830170 48.359 -55.5530
149.908661 50.630 -78.2163
150.994965 51.617 -114.5573
152.089142 51.474 -142.6754
153.191238 51.170 36.6323
154.301331 51.580 32.7075
155.419464 51.657 39.6198
156.545700 50.364 49.3826
157.680099 48.110 54.4590
158.822708 46.766 -49.1252
159.973602 47.720 -108.8839
161.132843 49.780 152.8753
162.300476 51.155 125.0869
163.476578 51.133 118.9907
164.661194 50.430 -167.9222
165.854401 49.613 169.7343
167.056244 48.389 128.6349
168.266800 46.714 -73.3586
169.486130 44.848 -107.3613
170.714294 43.895 -119.6956
171.951355 45.224 29.5770
173.197388 47.383 14.5015
174.452454 49.330 9.1485
175.716614 50.761 11.9071
176.989929 51.355 16.6078
178.272476 51.197 20.2325
179.564316 50.699 30.4106
180.865509 50.611 22.9764
182.176132 50.653 -6.5988
183.496262 50.121 -13.6609
184.825958 49.105 -2.7432
186.165283 48.668 6.6928
187.514313 48.907 21.8609
188.873123 49.038 53.2436
190.241776 48.836 49.9704
191.620346 48.401 -9.9269
193.008911 48.351 -35.1693
194.407532 48.678 -30.6208
195.816284 49.046 -2.7756
197.235245 49.370 -21.7267
198.664490 49.678 -30.7230
200.104095 49.792 -33.9971
201.554138 50.004 -38.6188
203.014679 50.669 -22.6050
204.485809 51.187 -42.0164
205.967590 51.119 -86.5320
207.460114 50.527 -99.2230
208.963455 49.469 -95.4788
210.477692 48.100 -99.6584
212.002899 46.398 -94.1829
213.539154 45.095 -61.2683
215.086548 44.886 -53.1420
216.645157 45.237 -59.4891
218.215057 45.904 -100.6818
219.796341 46.795 -132.5724
221.389069 47.914 -118.9005
222.993347 49.580 -101.8248
224.609253 51.372 -154.4965
226.236862 52.777 -63.2034
227.876266 53.451 -23.2811
229.527557 52.792 -29.7817
231.190811 51.323 -162.1465
232.866119 50.876 -157.6095
234.553558 51.460 -130.1579
236.253235 51.589 -88.4897
237.965225 51.055 -87.8753
239.689621 50.177 -113.5658
241.426514 49.357 -168.8946
243.175995 48.948 162.3521
244.938141 48.899 145.6813
246.713058 48.839 -159.1721
248.500839 48.934 -112.5092
250.301575 49.360 89.2173
252.115356 49.343 66.8751
253.942291 48.333 51.9423
255.782455 47.784 56.4380
257.635956 48.417 -94.5450
259.502899 48.700 -67.4117
261.383362 48.184 -19.7329
263.277466 47.891 -55.1092
265.185272 48.974 -95.1832
267.106903 50.709 -136.9504
269.042480 51.792 -129.7999
270.992065 51.905 -132.4511
272.955780 51.609 -149.3403
274.933716 51.106 -147.0142
276.925995 50.771 -164.7240
278.932709 50.896 -130.8351
280.953979 51.318 -139.0896
282.989899 51.598 -161.2328
285.040558 51.617 -130.4574
287.106079 51.418 -122.3477
289.186554 51.042 -133.2877
291.282104 50.580 -121.2928
293.392853 49.614 -122.2453
295.518890 48.792 -135.6016
297.660339 49.963 -133.8961
299.817322 52.343 172.4843
301.989929 54.385 158.3269
304.178284 55.282 -145.9152
306.382477 54.933 -135.6028
308.602661 53.937 -126.7785
310.838928 52.828 -120.2084
313.091400 51.553 -134.9305
315.360199 50.374 -120.5837
317.645416 50.079 -91.9927
319.947205 51.241 -55.1960
322.265686 52.998 -67.5642
324.600952 53.966 -104.0742
326.953156 53.666 -114.9280
329.322388 52.911 -123.2597
331.708801 52.520 -131.9240
334.112488 51.970 -141.5926
336.533600 51.292 -152.9964
338.972260 51.054 -173.2260
341.428589 50.947 175.6141
343.902710 50.947 -177.5276
346.394775 51.885 -166.6609
348.904907 53.380 162.3275
351.433228 54.348 97.4632
353.979858 54.961 124.4900
356.544952 55.997 -144.4103
359.128632 57.165 -146.2296
361.731018 57.731 -154.9396
364.352264 57.054 -162.7857
366.992523 55.639 -161.4500
369.651917 55.083 -79.8558
372.330566 54.977 11.8691
375.028625 54.168 -148.2999
377.746246 53.169 -134.4037
380.483551 52.913 -165.9905
383.240692 53.266 179.3060
386.017822 53.545 -179.4651
388.815063 53.278 170.8434
391.632568 53.302 140.5597
394.470490 54.302 118.6332
397.328979 55.136 115.5550
400.208191 55.057 132.1650
403.108276 54.770 -125.1928
406.029358 55.036 -122.4394
408.971619 55.457 -168.4477
411.935181 55.353 175.4861
414.920227 55.164 176.5509
417.926910 55.672 -176.8241
420.955383 56.213 -169.5297
424.005798 56.128 -166.7684
427.078308 55.960 169.0806
430.173096 56.436 -179.2630
433.290314 57.189 -121.1123
436.430115 57.433 -153.7834
439.592682 57.485 -163.3310
442.778137 58.010 -93.0429
445.986694 58.673 -102.3467
449.218506 58.947 -156.3513
452.473724 59.327 -178.3891
455.752533 59.721 -144.6381
459.055115 59.545 -64.0948
462.381622 59.118 -65.0164
465.732239 58.707 -91.7103
469.107117 58.306 -129.8504
472.506470 57.959 -147.1062
475.930450 58.202 -139.2987
479.379242 58.849 -143.5284
482.853027 59.080 -152.4925
486.351990 58.195 -160.1980
489.876282 56.394 -164.6333
493.426117 55.016 -152.8998
497.001678 55.092 -129.6216
500.603149 56.384 -130.3570
504.230713 57.761 -146.0313
507.884583 58.132 -160.6197
511.564911 57.427 -164.2505
515.271912 56.964 -157.9755
519.005798 57.640 -149.1854
522.766724 58.894 -132.6139
526.554932 60.201 -137.2543
530.370544 60.991 -147.5806
534.213806 61.145 -153.4772
538.084961 61.128 -161.6076
541.984131 61.434 -172.9384
545.911560 62.163 -174.9239
549.867432 62.692 176.1299
553.851990 62.531 163.4451
557.865417 61.677 155.5720
561.907959 60.829 152.8279
565.979797 60.819 158.2121
570.081116 61.580 165.6042
574.212158 62.498 161.9656
578.373108 62.986 149.0148
582.564209 62.609 131.2290
586.785706 61.495 114.7117
591.037781 60.343 111.3945
595.320679 59.227 112.6838
599.634644 58.098 112.3563
603.979858 58.041 123.1457
608.356567 59.444 151.7038
612.764954 61.106 158.3190
617.205322 61.979 148.9566
621.677856 61.823 143.0140
626.182800 61.535 144.2775
630.720398 62.232 146.3259
635.290833 63.356 138.6234
639.894409 63.883 128.4171
644.531372 63.765 117.4735
649.201904 62.904 110.6227
653.906311 61.519 111.7027
658.644775 60.363 114.8263
663.417603 60.073 109.8982
668.224976 60.357 104.3718
673.067200 60.282 94.1982
677.944519 59.687 86.9052
682.857178 58.631 86.9277
687.805420 57.870 104.3193
692.789551 58.053 107.5881
697.809814 58.209 113.3752
702.866455 57.956 135.3735
707.959717 58.196 146.2720
713.089905 59.227 140.1702
718.257263 60.585 132.4454
723.462036 61.501 130.3531
728.704529 61.342 127.2605
733.985046 60.702 120.4037
739.303833 60.568 107.1876
744.661133 60.614 97.9857
750.057251 60.415 94.3966
755.492493 60.173 97.6042
760.967102 59.842 107.8571
766.481384 59.713 112.0272
772.035645 59.810 108.9576
777.630127 60.129 105.5544
783.265137 60.258 109.1263
788.940979 59.970 126.8563
794.657959 59.518 137.1455
800.416382 59.152 138.9830
806.216553 59.263 142.3638
812.058716 59.622 135.3569
817.943237 59.847 123.6158
823.870361 59.701 129.5132
829.840454 60.025 143.6911
835.853821 61.284 134.3706
841.910767 62.440 119.2997
848.011597 62.896 110.4161
854.156616 62.579 101.5829
860.346191 61.889 92.9354
866.580627 61.612 96.0954
872.860229 61.737 85.6858
879.185364 61.232 75.2707
885.556274 60.591 133.2993
891.973389 60.920 146.0114
898.437012 61.982 144.3663
904.947449 62.973 137.0665
911.505066 63.446 125.1552
918.110229 63.353 115.1946
924.763245 62.895 105.9964
931.464478 62.275 96.6797
938.214233 61.844 98.9262
945.012939 62.373 108.8358
951.860901 63.667 115.9681
958.758484 64.705 114.4916
965.706055 64.962 104.4290
972.703979 64.278 93.5099
979.752563 62.959 86.0029
986.852234 61.828 84.3375
994.003357 61.313 88.1496
1001.206299 61.367 95.3776
1008.461426 61.731 98.7256
1015.769165 62.070 99.4491
1023.129822 62.520 98.7247
1030.543823 62.775 97.0271
1038.011597 62.511 96.3556
1045.533447 62.196 93.1243
1053.109863 62.109 88.4789
1060.741089 61.953 89.1336
1068.427612 61.666 91.0455
1076.169922 60.748 83.8509
1083.968262 59.510 80.0808
1091.823120 59.323 91.2277
1099.734863 60.272 98.7241
1107.703979 61.302 99.4922
1115.730835 61.862 87.8783
1123.815918 61.746 79.2094
1131.959595 61.128 77.9007
1140.162231 60.317 79.8099
1148.424316 60.416 96.2705
1156.746216 61.924 105.8495
1165.128418 63.366 101.3316
1173.571411 63.896 90.9361
1182.075562 63.198 76.8794
1190.641357 61.728 70.1140
1199.269287 60.308 81.2421
1207.959717 59.973 95.3513
1216.713135 60.878 100.4858
1225.529907 62.168 99.4261
1234.410645 63.512 92.2615
1243.355713 64.101 82.3588
1252.365601 63.348 68.8369
1261.440796 61.930 57.7485
1270.581665 61.411 86.1494
1279.788818 62.074 95.5116
1289.062744 62.674 89.6184
1298.403809 62.713 91.9575
1307.812622 62.418 87.8428
1317.289551 62.476 82.2318
1326.835205 62.955 79.3885
1336.449951 63.125 71.8651
1346.134399 62.820 77.3694
1355.889038 63.251 98.3992
1365.714355 64.643 94.7626
1375.610840 66.120 90.7919
1385.579102 67.128 91.6294
1395.619629 67.500 78.8498
1405.732910 67.013 65.8676
1415.919434 65.642 60.3955
1426.179810 64.207 64.7467
1436.514526 63.683 72.9254
1446.924072 63.839 73.0798
1457.409058 64.014 73.9200
1467.970093 64.478 82.3458
1478.607666 65.090 86.5554
1489.322266 65.562 75.1922
1500.114502 65.760 65.7717
1510.984985 65.576 68.2836
1521.934204 64.869 74.1100
1532.962769 63.693 72.5016
1544.071289 63.255 79.1558
1555.260254 64.360 90.8238
1566.530273 65.728 79.0191
1577.881958 66.245 79.0932
1589.315918 66.058 83.2394
1600.832764 65.785 88.1210
1612.433105 65.845 82.4792
1624.117432 66.154 72.5758
1635.886475 66.685 78.9210
1647.740723 67.683 85.6580
1659.680908 68.737 75.9341
1671.707642 69.081 62.1996
1683.821533 68.562 55.0323
1696.023193 68.013 62.9700
1708.313232 68.205 63.7335
1720.692383 68.545 52.4588
1733.161255 68.078 40.2224
1745.720459 66.866 36.6979
1758.370728 65.747 46.6167
1771.112549 64.981 52.1305
1783.946777 64.523 50.2325
1796.874023 64.754 47.8807
1809.894897 64.929 42.1579
1823.010132 64.487 38.3054
1836.220459 64.366 48.5764
1849.526489 65.066 62.4510
1862.928955 65.751 58.1250
1876.428467 65.654 49.6267
1890.025879 65.154 49.2442
1903.721802 65.686 62.7628
1917.516968 66.929 62.4242
1931.412109 67.362 51.8494
1945.407959 67.107 41.9480
1959.505127 67.297 33.7579
1973.704468 68.770 21.0065
1988.006714 70.070 6.3879
2002.412598 69.555 23.8021
2016.922852 68.014 39.0233
2031.538330 66.813 33.6305
2046.259644 65.930 24.8347
2061.087646 64.898 15.1891
2076.023193 63.958 6.3387
2091.066895 63.871 24.2059
2106.219727 65.095 54.8042
2121.482178 66.016 44.8952
2136.855225 65.673 33.3368
2152.339844 64.438 25.9538
2167.936523 63.472 33.3860
2183.646240 64.150 49.8877
2199.469727 65.069 45.4219
2215.407959 64.821 40.3455
2231.461670 64.362 46.0604
2247.631836 64.016 40.6557
2263.919189 63.338 41.5224
2280.324463 63.111 53.8362
2296.848633 63.422 60.9644
2313.492432 63.634 58.8794
2330.256836 63.361 48.5801
2347.142822 62.901 42.9256
2364.151123 62.914 48.7793
2381.282715 63.359 58.1091
2398.538574 63.637 58.8381
2415.919434 63.537 63.9493
2433.426270 63.785 68.0664
2451.059814 64.220 59.2280
2468.821289 64.574 49.4433
2486.711426 64.876 40.3468
2504.731201 65.267 34.3866
2522.881592 66.118 32.1538
2541.163330 66.816 35.6863
2559.577637 66.459 27.0413
2578.125488 65.148 13.1462
2596.807617 63.863 8.0721
2615.625244 63.657 29.1391
2634.579102 64.364 42.9503
2653.670410 65.285 48.7801
2672.899902 66.203 58.1096
2692.268799 66.321 45.5077
2711.778076 65.743 58.5120
2731.428711 65.691 75.5906
2751.221680 66.570 67.8633
2771.158203 67.391 54.0386
2791.239258 67.354 50.6392
2811.465820 67.396 58.9810
2831.838867 67.931 52.7678
2852.359619 68.522 42.2274
2873.029053 68.734 38.9891
2893.848145 68.293 34.9804
2914.818115 67.534 31.6077
2935.940186 66.974 26.6035
2957.215332 66.878 17.7770
2978.644531 66.642 23.2517
3000.229004 66.045 30.2024
3021.969971 65.466 23.3940
3043.868408 65.232 13.1682
3065.925537 65.498 16.3412
3088.142578 66.117 35.2903
3110.520508 66.147 37.3572
3133.060547 65.718 42.8209
3155.763916 66.177 56.4250
3178.631836 66.973 52.8003
3201.665527 67.510 46.0413
3224.866211 67.544 42.1855
3248.234863 67.336 43.5122
3271.772949 67.681 45.3721
3295.481445 68.471 36.5598
3319.361816 68.720 22.9854
3343.415283 67.961 18.9368
3367.643066 67.062 26.1125
3392.046387 67.022 27.8751
3416.626465 67.062 20.8915
3441.384766 67.070 21.3924
3466.322510 67.423 26.0059
3491.440918 67.874 28.5377
3516.741455 67.907 20.7794
3542.225098 67.567 13.9748
3567.893555 67.082 16.0125
3593.748047 66.916 17.5994
3619.789795 66.952 11.3157
3646.020264 66.872 10.6104
3672.440918 66.854 21.6327
3699.052979 67.062 27.5383
3725.857910 67.754 25.4322
3752.856934 68.258 15.5581
3780.051758 68.491 12.0542
3807.443604 68.870 5.7332
3835.033936 69.033 -0.8860
3862.824219 69.380 2.4501
3890.815918 69.996 5.6400
3919.010254 70.910 9.0671
