* Measurement data measured by REW V5.30.2
* Source: EXCL: Microphone (Umik-1  Gain: 18dB), MICROPHONE (Master Volume), L, volume: 0.540
* Format: 256k Log Swept Sine, 1 sweep at -20.0 dBFS with no timing reference
* Dated: Jan 11, 2024 5:35:10 PM
* REW Settings:
*  C-weighting compensation: Off
*  Target level: 75.0 dB
* Note: measured 0.5 m away from mic; measured 0.5m away from mic
* Measurement: Fan 1
* Smoothing: 1/48 octave
* Frequency Step: 96 ppo
* Start Frequency: 20.141602 Hz
*
* Freq(Hz) SPL(dB) Phase(degrees)
20.141602 49.711 -158.6866
20.287556 48.423 -158.7980
20.434568 46.822 -157.2715
20.582645 45.278 -150.4620
20.731796 44.091 -134.9763
20.882027 43.999 -117.6071
21.033346 45.462 -107.7207
21.185762 47.537 -105.1787
21.339283 49.304 -107.9755
21.493916 50.797 -113.3229
21.649670 51.975 -118.8841
21.806553 52.819 -125.4179
21.964573 53.327 -131.4624
22.123737 53.495 -137.1689
22.284056 53.288 -142.9206
22.445536 52.656 -147.7158
22.608185 51.545 -152.6393
22.772013 49.718 -156.8027
22.937029 47.093 -160.2488
23.103241 44.548 -163.0577
23.270657 42.753 -144.4669
23.439285 42.469 3.1217
23.609137 44.129 3.1898
23.780218 46.141 2.1265
23.952539 47.087 2.1917
24.126110 47.254 2.8760
24.300938 46.857 5.7070
24.477032 45.990 11.0158
24.654402 44.884 19.1236
24.833057 43.633 31.7575
25.013008 42.470 46.0611
25.194263 41.398 62.6992
25.376831 40.249 81.1175
25.560722 39.297 106.9525
25.745945 39.647 146.1611
25.932510 41.234 -179.8215
26.120428 43.251 -165.1067
26.309708 45.260 -158.8849
26.500359 46.607 -158.3672
26.692390 47.298 -160.7200
26.885815 47.372 -165.9421
27.080641 46.901 -174.4564
27.276878 45.988 172.2128
27.474539 45.099 150.8541
27.673630 44.820 120.3454
27.874165 45.247 90.9740
28.076153 46.293 70.2193
28.279604 47.277 57.3017
28.484529 47.943 48.2506
28.690941 48.246 41.4411
28.898848 48.232 35.2515
29.108261 48.029 28.2625
29.319191 47.828 18.8229
29.531651 47.864 5.2177
29.745649 48.437 -12.8131
29.961199 49.611 -32.6609
30.178310 51.109 -50.6260
30.396996 52.664 -65.1765
30.617264 53.963 -77.4764
30.839128 54.887 -87.7909
31.062601 55.355 -97.7341
31.287693 55.303 -107.0063
31.514416 54.671 -116.6368
31.742783 53.380 -127.3034
31.972803 51.374 -140.0982
32.204491 49.012 -163.1905
32.437859 47.710 128.2183
32.672916 48.103 67.0992
32.909679 49.708 46.6813
33.148155 50.812 36.3760
33.388359 51.244 29.3754
33.630306 51.036 24.8506
33.874004 50.419 22.9248
34.119469 49.632 22.6306
34.366711 48.925 23.2017
34.615746 48.457 21.1781
34.866585 48.140 15.5895
35.119244 47.821 5.2703
35.373734 47.299 -8.4038
35.630066 46.397 -23.5363
35.888256 44.974 -40.2790
36.148315 42.965 -58.4512
36.410259 41.876 -105.2620
36.674103 42.752 121.8793
36.939857 45.047 103.4850
37.207539 46.669 92.8161
37.477161 47.286 85.3019
37.748737 46.844 80.3397
38.022282 45.402 80.8059
38.297806 43.361 92.3947
38.575329 41.826 120.9153
38.854862 41.426 148.8085
39.136421 41.371 160.0445
39.420021 40.362 165.3639
39.705673 38.557 176.9598
39.993397 37.504 -111.3877
40.283207 38.601 -64.1331
40.575115 39.793 -59.4414
40.869141 39.752 -59.2136
41.165295 38.264 -57.2211
41.463596 36.038 -41.3519
41.764057 34.586 43.8895
42.066696 35.011 75.7407
42.371529 35.470 90.1949
42.678570 36.542 127.8697
42.987835 38.922 179.5075
43.299343 41.812 -165.6722
43.613110 43.934 -165.0540
43.929150 45.035 -169.8866
44.247478 45.202 -178.3005
44.568115 44.556 169.3196
44.891075 43.305 151.0766
45.216373 41.784 125.4355
45.544029 40.283 97.8105
45.874062 38.825 79.4006
46.206486 37.397 77.3609
46.541317 36.791 98.9859
46.878574 37.956 124.7198
47.218277 39.560 130.7547
47.560440 40.470 124.6577
47.905083 40.658 109.9845
48.252224 40.641 86.1971
48.601879 41.032 58.4040
48.954067 41.870 37.8857
49.308807 42.708 26.4585
49.666119 43.102 20.1165
50.026020 42.752 15.5606
50.388531 41.494 11.0394
50.753666 39.926 6.5490
51.121449 40.152 173.7806
51.491894 42.165 167.9774
51.865025 43.893 158.4668
52.240860 44.421 146.7503
52.619419 43.728 131.6340
53.000721 42.075 108.1395
53.384785 40.318 52.5614
53.771633 39.577 -22.6187
54.161285 39.431 -56.1620
54.553761 38.781 -79.8759
54.949081 37.320 -108.2246
55.347263 35.768 -171.5161
55.748333 35.220 120.3052
56.152309 35.239 97.8705
56.559212 34.734 91.1801
56.969063 33.515 95.4644
57.381886 31.944 110.8383
57.797699 30.578 139.7432
58.216526 30.408 177.4536
58.638386 31.690 -169.0082
59.063305 33.313 176.3079
59.491302 34.802 137.1747
59.922401 36.032 95.0704
60.356625 36.498 66.8566
60.793995 35.817 48.3085
61.234531 34.625 49.0804
61.678261 34.927 135.2817
62.125206 36.648 126.2913
62.575390 37.996 96.9120
63.028835 38.481 62.6480
63.485569 38.031 29.7333
63.945610 36.540 -1.4020
64.408989 34.154 -42.0640
64.875725 31.901 -108.5605
65.345840 32.016 -124.0505
65.819366 34.713 -105.6473
66.296318 37.435 -101.9910
66.776726 38.933 -105.7286
67.260620 39.083 -107.7438
67.748016 38.269 -100.9368
68.238945 37.289 -82.9592
68.733429 36.564 -68.7910
69.231499 35.581 -69.8611
69.733177 34.536 -105.0040
70.238495 34.821 171.2859
70.747475 35.884 152.8652
71.260139 36.446 146.9553
71.776520 37.239 147.4805
72.296638 39.406 -53.1318
72.820526 41.581 -63.8143
73.348213 42.485 -83.0228
73.879723 42.206 -119.3167
74.415085 41.422 -176.6584
74.954330 40.708 137.4343
75.497482 40.893 -31.4733
76.044571 42.121 -56.5393
76.595619 43.292 -52.3536
77.150665 44.476 -28.8345
77.709732 45.581 -13.0498
78.272850 45.608 -14.0576
78.840050 44.152 -28.8884
79.411354 42.097 -84.7689
79.986801 41.432 -126.9965
80.566422 42.179 -130.9845
81.150238 42.737 -135.7351
81.738289 43.239 -176.6917
82.330597 44.403 29.6479
82.927200 45.340 2.5087
83.528122 45.821 -75.8369
84.133400 46.178 -139.7903
84.743065 45.916 -150.0743
85.357147 45.423 -125.8759
85.975677 45.719 -102.0331
86.598694 46.109 -119.3344
87.226227 46.383 179.4106
87.858307 46.744 141.1305
88.494965 46.687 133.9498
89.136238 45.928 137.2726
89.782158 44.289 139.1676
90.432755 41.532 131.0441
91.088066 37.890 73.2281
91.748131 34.651 5.0969
92.412979 34.318 16.8054
93.082642 36.188 11.1078
93.757156 37.602 -8.3396
94.436562 37.959 -28.1718
95.120888 37.694 -46.7772
95.810173 37.608 -60.5992
96.504456 37.974 -60.3213
97.203766 38.474 -43.2916
97.908142 38.797 -15.6940
98.617622 38.811 19.2485
99.332245 38.828 50.2052
100.052048 39.427 59.8457
100.777069 41.073 -117.9473
101.507339 42.681 -132.0540
102.242905 43.226 -160.4526
102.983795 42.980 149.9907
103.730057 42.294 106.7261
104.481728 41.114 69.3833
105.238846 39.809 27.1597
106.001450 39.231 14.2771
106.769577 39.717 23.9021
107.543274 40.340 16.7869
108.322578 40.307 -19.8035
109.107529 39.805 -81.5286
109.898170 39.336 -178.2056
110.694534 38.954 133.4653
111.496674 38.015 117.0420
112.304626 37.521 84.4983
113.118431 39.054 36.1824
113.938133 40.534 26.1079
114.763779 40.645 23.3862
115.595406 41.315 61.3230
116.433060 44.809 111.0356
117.276779 49.318 -159.5042
118.126617 53.114 -145.2852
118.982613 55.502 -142.6624
119.844810 56.195 -141.3474
120.713257 55.140 -137.0771
121.587997 52.763 -115.3140
122.469070 50.236 -78.4954
123.356529 48.379 -72.3452
124.250420 46.285 -78.6733
125.150787 43.178 -81.8418
126.057678 39.670 -45.6008
126.971146 37.623 -80.3801
127.891228 37.787 63.6655
128.817978 38.800 89.7371
129.751450 39.702 121.4004
130.691681 40.703 129.5259
131.638733 41.857 21.2180
132.592636 42.366 9.8508
133.553452 41.447 6.1121
134.521240 39.930 -3.1450
135.496033 39.875 -1.7761
136.477890 40.498 -2.0908
137.466858 40.066 -13.2170
138.462997 39.144 -25.9736
139.466354 39.159 -10.8293
140.476990 39.717 -4.2483
141.494949 40.078 -29.8831
142.520279 41.097 -86.2622
143.553040 42.108 -112.3167
144.593277 41.974 -116.7114
145.641052 41.254 -102.6479
146.696426 41.169 -32.9797
147.759445 41.844 -20.3232
148.830170 42.304 -85.6904
149.908661 42.192 -98.2954
150.994965 41.990 60.1604
152.089142 42.189 74.8242
153.191238 43.228 67.2532
154.301331 45.067 34.6592
155.419464 47.032 29.9280
156.545700 47.882 23.8455
157.680099 46.999 12.1458
158.822708 45.404 20.5295
159.973602 45.316 68.6404
161.132843 46.391 95.7810
162.300476 46.993 95.8264
163.476578 47.398 77.7112
164.661194 47.795 47.7148
165.854401 47.471 -70.7866
167.056244 46.227 -115.9209
168.266800 44.537 -66.2253
169.486130 43.632 -47.8411
170.714294 43.426 -46.8340
171.951355 42.951 -34.5081
173.197388 42.911 100.8337
174.452454 43.529 -124.5449
175.716614 43.766 -86.1528
176.989929 43.243 -119.2102
178.272476 42.807 152.6895
179.564316 42.105 131.1309
180.865509 40.423 106.1021
182.176132 39.092 32.5066
183.496262 39.531 42.6372
184.825958 41.174 2.4529
186.165283 43.182 -45.2888
187.514313 44.181 -64.7302
188.873123 43.829 -61.0134
190.241776 43.283 -5.0071
191.620346 42.994 3.4294
193.008911 42.908 -6.8855
194.407532 44.335 -51.6604
195.816284 46.847 -67.2290
197.235245 48.567 -55.0293
198.664490 48.842 -31.0310
200.104095 48.109 8.7075
201.554138 46.799 -0.8628
203.014679 45.060 -25.6375
204.485809 43.655 -62.6194
205.967590 43.406 -52.1035
207.460114 43.832 -49.9600
208.963455 44.613 -46.8374
210.477692 45.339 -19.6958
212.002899 45.442 -15.4575
213.539154 45.526 -29.4153
215.086548 45.745 -52.1724
216.645157 45.033 -45.8149
218.215057 43.433 -15.3535
219.796341 42.248 -31.5042
221.389069 42.404 -31.9160
222.993347 42.963 -14.3789
224.609253 43.365 -1.7869
226.236862 43.770 -16.9822
227.876266 44.212 -29.6111
229.527557 44.219 -27.1604
231.190811 43.996 -27.1008
232.866119 44.107 -6.5837
234.553558 44.842 -5.6396
236.253235 45.608 -8.6924
237.965225 46.177 -8.7429
239.689621 47.135 -65.3992
241.426514 48.187 -60.8176
243.175995 48.987 -57.0679
244.938141 49.441 -64.4944
246.713058 49.385 -60.1162
248.500839 48.926 -46.0022
250.301575 48.075 -57.0393
252.115356 46.894 -89.2676
253.942291 45.955 -119.8850
255.782455 45.767 -100.6870
257.635956 46.185 -80.2588
259.502899 47.154 -87.0125
261.383362 48.423 -72.0244
263.277466 49.249 -59.4031
265.185272 49.005 -68.0830
267.106903 48.069 -36.6443
269.042480 47.496 -24.9907
270.992065 47.273 -27.7673
272.955780 47.481 -64.0754
274.933716 48.379 -85.8569
276.925995 49.508 -75.8369
278.932709 50.324 -70.3936
280.953979 50.399 -69.1162
282.989899 49.729 -71.0513
285.040558 49.296 -87.4067
287.106079 50.716 -90.6040
289.186554 53.199 -91.9016
291.282104 54.874 -89.2222
293.392853 54.794 -92.2493
295.518890 53.088 -104.3918
297.660339 51.149 -113.2024
299.817322 50.680 -111.7310
301.989929 51.738 -112.3833
304.178284 53.144 -109.7542
306.382477 54.079 -116.3628
308.602661 54.057 -137.1743
310.838928 52.873 -160.0513
313.091400 51.020 -155.0388
315.360199 49.922 -128.1006
317.645416 50.334 -108.4270
319.947205 50.997 -124.5378
322.265686 50.918 -143.9875
324.600952 50.264 -148.0156
326.953156 49.203 -142.6411
329.322388 48.563 -123.1672
331.708801 49.828 -121.3933
334.112488 52.368 -134.1177
336.533600 54.433 -130.8008
338.972260 55.514 -106.0288
341.428589 55.696 -103.9834
343.902710 55.377 -110.6343
346.394775 55.251 -103.6865
348.904907 55.120 -136.1228
351.433228 54.483 -134.7295
353.979858 53.604 -131.4512
356.544952 53.313 -138.0349
359.128632 53.773 -149.2742
361.731018 54.068 -161.9175
364.352264 53.819 -178.1306
366.992523 53.817 175.5476
369.651917 54.075 163.4460
372.330566 53.895 -172.3936
375.028625 53.145 -134.6582
377.746246 52.571 -121.7996
380.483551 53.180 -165.7515
383.240692 54.245 173.4282
386.017822 54.796 -172.5657
388.815063 54.525 -157.3887
391.632568 53.496 -167.3030
394.470490 52.328 126.0774
397.328979 51.384 118.3162
400.208191 51.171 -141.1521
403.108276 52.352 -143.3979
406.029358 54.030 -152.3811
408.971619 55.222 -154.0234
411.935181 55.908 -167.4863
414.920227 56.149 -138.0037
417.926910 55.829 -120.4019
420.955383 55.268 -127.4287
424.005798 55.248 -137.5708
427.078308 56.539 -150.0049
430.173096 58.304 -159.1990
433.290314 59.047 -162.9797
436.430115 58.273 -144.6060
439.592682 56.695 -105.7468
442.778137 55.211 -171.5540
445.986694 54.159 163.2354
449.218506 54.572 -143.4971
452.473724 56.451 -81.6982
455.752533 58.174 -89.7378
459.055115 59.331 -113.4700
462.381622 60.057 -142.9209
465.732239 60.269 -167.4839
469.107117 59.468 172.6013
472.506470 57.782 157.4211
475.930450 56.536 150.3750
479.379242 56.231 148.9492
482.853027 56.379 145.5786
486.351990 56.904 152.5168
489.876282 57.224 170.9312
493.426117 57.201 -150.1213
497.001678 56.900 -141.9661
500.603149 56.463 -148.2153
504.230713 55.586 -144.5566
507.884583 54.968 -124.2949
511.564911 56.174 -84.1494
515.271912 57.818 -72.8450
519.005798 58.686 -101.2146
522.766724 59.038 -132.2375
526.554932 59.106 -144.6516
530.370544 59.346 -148.3535
534.213806 59.696 -152.6304
538.084961 59.693 -162.4028
541.984131 59.261 -147.6108
545.911560 58.396 -145.8413
549.867432 57.061 -146.7649
553.851990 55.983 -151.9624
557.865417 55.508 -169.6653
561.907959 55.085 173.7288
565.979797 54.795 172.7766
570.081116 55.236 170.9863
574.212158 55.462 176.0276
578.373108 55.384 -177.2410
582.564209 55.895 173.0071
586.785706 56.277 161.2651
591.037781 56.179 -170.0686
595.320679 56.249 -114.6409
599.634644 56.622 -123.0186
603.979858 57.560 -137.4194
608.356567 58.963 -149.5251
612.764954 60.172 -169.3115
617.205322 60.773 174.0410
621.677856 60.843 163.7854
626.182800 60.548 165.5603
630.720398 60.066 166.9644
635.290833 59.543 161.5242
639.894409 59.030 151.3254
644.531372 58.814 141.7288
649.201904 58.416 132.9478
653.906311 57.495 127.1057
658.644775 56.290 123.1240
663.417603 55.656 129.5984
668.224976 55.899 135.9636
673.067200 56.165 148.9834
677.944519 56.571 149.8091
682.857178 57.255 142.6953
687.805420 57.893 143.2092
692.789551 58.711 153.5801
697.809814 59.902 146.7563
702.866455 60.884 147.1079
707.959717 60.910 152.0486
713.089905 60.004 152.1833
718.257263 59.132 152.6545
723.462036 58.620 139.8174
728.704529 57.676 127.2795
733.985046 56.367 130.5356
739.303833 55.560 138.1804
744.661133 55.201 142.8069
750.057251 55.145 150.7817
755.492493 55.657 153.4209
760.967102 56.251 153.1194
766.481384 56.195 143.5710
772.035645 56.083 138.0901
777.630127 57.254 158.6121
783.265137 58.645 155.4055
788.940979 58.989 143.7979
794.657959 58.424 137.7043
800.416382 57.298 135.6040
806.216553 56.078 120.1074
812.058716 55.304 113.5449
817.943237 55.230 124.3281
823.870361 55.619 135.4670
829.840454 56.065 128.3196
835.853821 56.365 123.6567
841.910767 56.588 150.1885
848.011597 56.778 161.2803
854.156616 56.474 125.1172
860.346191 55.861 89.9834
866.580627 55.310 78.8130
872.860229 54.752 94.7217
879.185364 54.537 128.8469
885.556274 54.507 132.5271
891.973389 54.361 128.2729
898.437012 54.279 128.7402
904.947449 54.443 132.4060
911.505066 55.004 146.2712
918.110229 55.744 135.8870
924.763245 56.518 122.3591
931.464478 56.834 129.2773
938.214233 56.406 149.8027
945.012939 56.151 -154.9954
951.860901 56.503 -173.3923
958.758484 56.810 168.1101
965.706055 56.480 144.2502
972.703979 55.411 134.5369
979.752563 53.933 139.5637
986.852234 52.705 141.9131
994.003357 52.654 156.0559
1001.206299 53.742 -178.6448
1008.461426 55.061 -176.5059
1015.769165 56.147 168.9009
1023.129822 56.391 154.6702
1030.543823 55.648 139.6143
1038.011597 54.663 135.7246
1045.533447 54.325 157.2283
1053.109863 54.710 -173.6362
1060.741089 55.203 -174.8445
1068.427612 55.965 -171.3621
1076.169922 56.637 176.9673
1083.968262 56.865 167.6450
1091.823120 56.944 169.3596
1099.734863 57.411 170.6423
1107.703979 58.426 163.1992
1115.730835 59.505 154.3245
1123.815918 59.969 159.2461
1131.959595 59.643 170.2395
1140.162231 58.927 179.1252
1148.424316 58.779 179.9795
1156.746216 59.204 175.7693
1165.128418 59.455 166.2273
1173.571411 59.556 158.2207
1182.075562 59.384 151.2368
1190.641357 59.104 154.1826
1199.269287 59.079 166.5232
1207.959717 59.014 167.2754
1216.713135 58.979 167.7815
1225.529907 59.120 172.9414
1234.410645 59.403 171.4985
1243.355713 59.854 159.6440
1252.365601 60.142 144.7341
1261.440796 59.885 141.6506
1270.581665 59.491 156.8689
1279.788818 59.365 166.5317
1289.062744 59.809 165.0991
1298.403809 61.223 163.9172
1307.812622 62.470 153.8386
1317.289551 62.599 141.9941
1326.835205 61.970 130.1763
1336.449951 61.166 122.7734
1346.134399 60.698 140.9739
1355.889038 60.964 147.7695
1365.714355 61.282 137.5142
1375.610840 61.638 132.7292
1385.579102 62.767 129.8787
1395.619629 64.215 133.7261
1405.732910 64.595 140.2507
1415.919434 64.391 158.8948
1426.179810 64.785 165.9644
1436.514526 64.623 155.6560
1446.924072 63.349 147.7615
1457.409058 61.843 146.2766
1467.970093 61.505 135.4546
1478.607666 62.393 128.8901
1489.322266 63.450 133.8704
1500.114502 64.084 134.1384
1510.984985 64.291 125.5234
1521.934204 64.726 138.2349
1532.962769 65.724 132.7190
1544.071289 65.902 122.7280
1555.260254 65.081 127.0596
1566.530273 64.251 146.7061
1577.881958 64.814 161.6326
1589.315918 66.419 156.2578
1600.832764 66.924 142.7180
1612.433105 65.984 124.2466
1624.117432 64.853 108.2473
1635.886475 64.540 117.7275
1647.740723 64.816 136.1787
1659.680908 65.111 146.6311
1671.707642 65.382 143.7024
1683.821533 65.921 135.8872
1696.023193 66.145 129.8354
1708.313232 65.568 111.5898
1720.692383 64.927 84.6074
1733.161255 65.498 110.6467
1745.720459 66.610 113.9272
1758.370728 66.840 109.2827
1771.112549 66.332 176.6794
1783.946777 65.615 -170.6096
1796.874023 64.417 161.7539
1809.894897 63.137 132.6536
1823.010132 62.620 134.8721
1836.220459 62.602 149.1035
1849.526489 62.986 161.8025
1862.928955 63.502 165.0195
1876.428467 63.403 -176.8848
1890.025879 63.013 -131.1377
1903.721802 62.859 169.2048
1917.516968 63.271 129.7715
1931.412109 64.121 127.0044
1945.407959 66.155 118.0388
1959.505127 69.826 143.0232
1973.704468 73.075 -177.9900
1988.006714 73.928 -164.7957
2002.412598 71.798 175.6338
2016.922852 67.794 147.0139
2031.538330 64.081 176.9988
2046.259644 62.574 -167.1223
2061.087646 62.508 -169.9807
2076.023193 63.154 141.9202
2091.066895 63.910 137.8391
2106.219727 64.414 136.7410
2121.482178 64.857 132.3972
2136.855225 65.325 148.7056
2152.339844 65.700 161.9626
2167.936523 66.058 150.5454
2183.646240 66.646 161.8101
2199.469727 67.249 175.7478
2215.407959 67.283 -178.6621
2231.461670 67.065 -162.3557
2247.631836 67.008 -150.3455
2263.919189 66.929 -165.7056
2280.324463 66.740 169.7842
2296.848633 66.622 163.0842
2313.492432 66.798 -179.2434
2330.256836 67.240 -174.2690
2347.142822 67.624 -168.6450
2364.151123 67.621 -166.3340
2381.282715 67.569 173.1594
2398.538574 68.100 149.9539
2415.919434 68.660 169.6973
2433.426270 68.598 -144.2043
2451.059814 68.449 -136.1472
2468.821289 68.437 -174.5095
2486.711426 68.684 -176.4226
2504.731201 69.131 -157.7131
2522.881592 69.894 -174.7703
2541.163330 70.487 171.4331
2559.577637 70.164 172.9194
2578.125488 69.674 166.8386
2596.807617 69.946 158.8013
2615.625244 70.098 159.1228
2634.579102 69.738 169.0354
2653.670410 69.748 177.4790
2672.899902 70.193 173.4170
2692.268799 70.400 144.7036
2711.778076 70.249 129.7190
2731.428711 69.480 142.8635
2751.221680 68.342 150.8162
2771.158203 67.601 146.9556
2791.239258 67.658 161.0857
2811.465820 67.927 -159.8330
2831.838867 68.050 -149.7693
2852.359619 68.339 -177.1030
2873.029053 68.515 157.0500
2893.848145 68.491 120.8550
2914.818115 68.678 65.4194
2935.940186 68.607 -147.2444
2957.215332 68.173 -154.9917
2978.644531 68.170 -159.1550
3000.229004 68.540 -150.9067
3021.969971 68.514 -123.8184
3043.868408 67.868 -146.8701
3065.925537 66.949 -153.3850
3088.142578 66.407 -150.6675
3110.520508 66.539 -158.7595
3133.060547 67.145 -172.2573
3155.763916 67.362 -164.6609
3178.631836 67.345 -163.6699
3201.665527 67.576 -179.3723
3224.866211 67.645 -158.9329
3248.234863 67.682 -129.9451
3271.772949 67.982 -115.2957
3295.481445 68.456 -120.6155
3319.361816 68.924 -131.3596
3343.415283 69.488 -126.6978
3367.643066 69.503 -139.1018
3392.046387 68.748 -159.3464
3416.626465 68.120 -173.5603
3441.384766 68.080 -171.3599
3466.322510 68.057 -169.1951
3491.440918 68.026 -172.4224
3516.741455 68.114 -176.6709
3542.225098 68.199 165.1699
3567.893555 67.794 169.3037
3593.748047 67.212 170.7366
3619.789795 67.170 159.2253
